#  E (eV)   dos(E)     Int dos(E) EFermi =    7.976 eV
 -10.000  0.6886E-85  0.6886E-87
  -9.990  0.6886E-85  0.1377E-86
  -9.980  0.6886E-85  0.2066E-86
  -9.970  0.6886E-85  0.2755E-86
  -9.960  0.6886E-85  0.3443E-86
  -9.950  0.6886E-85  0.4132E-86
  -9.940  0.6886E-85  0.4820E-86
  -9.930  0.6886E-85  0.5509E-86
  -9.920  0.6886E-85  0.6198E-86
  -9.910  0.6886E-85  0.6886E-86
  -9.900  0.6886E-85  0.7575E-86
  -9.890  0.6886E-85  0.8264E-86
  -9.880  0.6886E-85  0.8952E-86
  -9.870  0.6886E-85  0.9641E-86
  -9.860  0.6886E-85  0.1033E-85
  -9.850  0.6886E-85  0.1102E-85
  -9.840  0.6886E-85  0.1171E-85
  -9.830  0.6886E-85  0.1240E-85
  -9.820  0.6886E-85  0.1308E-85
  -9.810  0.6886E-85  0.1377E-85
  -9.800  0.6886E-85  0.1446E-85
  -9.790  0.6886E-85  0.1515E-85
  -9.780  0.6886E-85  0.1584E-85
  -9.770  0.6886E-85  0.1653E-85
  -9.760  0.6886E-85  0.1722E-85
  -9.750  0.6886E-85  0.1790E-85
  -9.740  0.6886E-85  0.1859E-85
  -9.730  0.6886E-85  0.1928E-85
  -9.720  0.6886E-85  0.1997E-85
  -9.710  0.6886E-85  0.2066E-85
  -9.700  0.6886E-85  0.2135E-85
  -9.690  0.6886E-85  0.2204E-85
  -9.680  0.6886E-85  0.2272E-85
  -9.670  0.6886E-85  0.2341E-85
  -9.660  0.6886E-85  0.2410E-85
  -9.650  0.6886E-85  0.2479E-85
  -9.640  0.6886E-85  0.2548E-85
  -9.630  0.6886E-85  0.2617E-85
  -9.620  0.6886E-85  0.2686E-85
  -9.610  0.6886E-85  0.2755E-85
  -9.600  0.6886E-85  0.2823E-85
  -9.590  0.6886E-85  0.2892E-85
  -9.580  0.6886E-85  0.2961E-85
  -9.570  0.6886E-85  0.3030E-85
  -9.560  0.6886E-85  0.3099E-85
  -9.550  0.6886E-85  0.3168E-85
  -9.540  0.6886E-85  0.3237E-85
  -9.530  0.6886E-85  0.3305E-85
  -9.520  0.6886E-85  0.3374E-85
  -9.510  0.6886E-85  0.3443E-85
  -9.500  0.6886E-85  0.3512E-85
  -9.490  0.6886E-85  0.3581E-85
  -9.480  0.6886E-85  0.3650E-85
  -9.470  0.6886E-85  0.3719E-85
  -9.460  0.6886E-85  0.3787E-85
  -9.450  0.6886E-85  0.3856E-85
  -9.440  0.6886E-85  0.3925E-85
  -9.430  0.6886E-85  0.3994E-85
  -9.420  0.6886E-85  0.4063E-85
  -9.410  0.6886E-85  0.4132E-85
  -9.400  0.6886E-85  0.4201E-85
  -9.390  0.6886E-85  0.4270E-85
  -9.380  0.6886E-85  0.4338E-85
  -9.370  0.6886E-85  0.4407E-85
  -9.360  0.6886E-85  0.4476E-85
  -9.350  0.6886E-85  0.4545E-85
  -9.340  0.6886E-85  0.4614E-85
  -9.330  0.6886E-85  0.4683E-85
  -9.320  0.6886E-85  0.4752E-85
  -9.310  0.6886E-85  0.4820E-85
  -9.300  0.6886E-85  0.4889E-85
  -9.290  0.6886E-85  0.4958E-85
  -9.280  0.6886E-85  0.5027E-85
  -9.270  0.6886E-85  0.5096E-85
  -9.260  0.6886E-85  0.5165E-85
  -9.250  0.6886E-85  0.5234E-85
  -9.240  0.6886E-85  0.5302E-85
  -9.230  0.6886E-85  0.5371E-85
  -9.220  0.6886E-85  0.5440E-85
  -9.210  0.6886E-85  0.5509E-85
  -9.200  0.6886E-85  0.5578E-85
  -9.190  0.6886E-85  0.5647E-85
  -9.180  0.6886E-85  0.5716E-85
  -9.170  0.6886E-85  0.5785E-85
  -9.160  0.6886E-85  0.5853E-85
  -9.150  0.6886E-85  0.5922E-85
  -9.140  0.6886E-85  0.5991E-85
  -9.130  0.6886E-85  0.6060E-85
  -9.120  0.6886E-85  0.6129E-85
  -9.110  0.6886E-85  0.6198E-85
  -9.100  0.6886E-85  0.6267E-85
  -9.090  0.6886E-85  0.6335E-85
  -9.080  0.6886E-85  0.6404E-85
  -9.070  0.6886E-85  0.6473E-85
  -9.060  0.6886E-85  0.6542E-85
  -9.050  0.6886E-85  0.6611E-85
  -9.040  0.6886E-85  0.6680E-85
  -9.030  0.6886E-85  0.6749E-85
  -9.020  0.6886E-85  0.6817E-85
  -9.010  0.6886E-85  0.6886E-85
  -9.000  0.6886E-85  0.6955E-85
  -8.990  0.6886E-85  0.7024E-85
  -8.980  0.6886E-85  0.7093E-85
  -8.970  0.6886E-85  0.7162E-85
  -8.960  0.6886E-85  0.7231E-85
  -8.950  0.6886E-85  0.7300E-85
  -8.940  0.6886E-85  0.7368E-85
  -8.930  0.6886E-85  0.7437E-85
  -8.920  0.6886E-85  0.7506E-85
  -8.910  0.6886E-85  0.7575E-85
  -8.900  0.6886E-85  0.7644E-85
  -8.890  0.6886E-85  0.7713E-85
  -8.880  0.6886E-85  0.7782E-85
  -8.870  0.6886E-85  0.7850E-85
  -8.860  0.6886E-85  0.7919E-85
  -8.850  0.6886E-85  0.7988E-85
  -8.840  0.6886E-85  0.8057E-85
  -8.830  0.6886E-85  0.8126E-85
  -8.820  0.6886E-85  0.8195E-85
  -8.810  0.6886E-85  0.8264E-85
  -8.800  0.6886E-85  0.8332E-85
  -8.790  0.6886E-85  0.8401E-85
  -8.780  0.6886E-85  0.8470E-85
  -8.770  0.6886E-85  0.8539E-85
  -8.760  0.6886E-85  0.8608E-85
  -8.750  0.6886E-85  0.8677E-85
  -8.740  0.6886E-85  0.8746E-85
  -8.730  0.6886E-85  0.8815E-85
  -8.720  0.6886E-85  0.8883E-85
  -8.710  0.6886E-85  0.8952E-85
  -8.700  0.6886E-85  0.9021E-85
  -8.690  0.6886E-85  0.9090E-85
  -8.680  0.6886E-85  0.9159E-85
  -8.670  0.6886E-85  0.9228E-85
  -8.660  0.6886E-85  0.9297E-85
  -8.650  0.6886E-85  0.9365E-85
  -8.640  0.6886E-85  0.9434E-85
  -8.630  0.6886E-85  0.9503E-85
  -8.620  0.6886E-85  0.9572E-85
  -8.610  0.6886E-85  0.9641E-85
  -8.600  0.6886E-85  0.9710E-85
  -8.590  0.6886E-85  0.9779E-85
  -8.580  0.6886E-85  0.9847E-85
  -8.570  0.6886E-85  0.9916E-85
  -8.560  0.6886E-85  0.9985E-85
  -8.550  0.6886E-85  0.1005E-84
  -8.540  0.6886E-85  0.1012E-84
  -8.530  0.6886E-85  0.1019E-84
  -8.520  0.6886E-85  0.1026E-84
  -8.510  0.6886E-85  0.1033E-84
  -8.500  0.6886E-85  0.1040E-84
  -8.490  0.6886E-85  0.1047E-84
  -8.480  0.6886E-85  0.1054E-84
  -8.470  0.6886E-85  0.1060E-84
  -8.460  0.6886E-85  0.1067E-84
  -8.450  0.6886E-85  0.1074E-84
  -8.440  0.6886E-85  0.1081E-84
  -8.430  0.6886E-85  0.1088E-84
  -8.420  0.6886E-85  0.1095E-84
  -8.410  0.6886E-85  0.1102E-84
  -8.400  0.6886E-85  0.1109E-84
  -8.390  0.6886E-85  0.1116E-84
  -8.380  0.6886E-85  0.1122E-84
  -8.370  0.6886E-85  0.1129E-84
  -8.360  0.6886E-85  0.1136E-84
  -8.350  0.6886E-85  0.1143E-84
  -8.340  0.6886E-85  0.1150E-84
  -8.330  0.6886E-85  0.1157E-84
  -8.320  0.6886E-85  0.1164E-84
  -8.310  0.6886E-85  0.1171E-84
  -8.300  0.6886E-85  0.1178E-84
  -8.290  0.6886E-85  0.1184E-84
  -8.280  0.6886E-85  0.1191E-84
  -8.270  0.6886E-85  0.1198E-84
  -8.260  0.6886E-85  0.1205E-84
  -8.250  0.6886E-85  0.1212E-84
  -8.240  0.6886E-85  0.1219E-84
  -8.230  0.6886E-85  0.1226E-84
  -8.220  0.6886E-85  0.1233E-84
  -8.210  0.6886E-85  0.1240E-84
  -8.200  0.6886E-85  0.1246E-84
  -8.190  0.6886E-85  0.1253E-84
  -8.180  0.6886E-85  0.1260E-84
  -8.170  0.6886E-85  0.1267E-84
  -8.160  0.6886E-85  0.1274E-84
  -8.150  0.6886E-85  0.1281E-84
  -8.140  0.6886E-85  0.1288E-84
  -8.130  0.6886E-85  0.1295E-84
  -8.120  0.6886E-85  0.1302E-84
  -8.110  0.6886E-85  0.1308E-84
  -8.100  0.6886E-85  0.1315E-84
  -8.090  0.6886E-85  0.1322E-84
  -8.080  0.6886E-85  0.1329E-84
  -8.070  0.6886E-85  0.1336E-84
  -8.060  0.6886E-85  0.1343E-84
  -8.050  0.6886E-85  0.1350E-84
  -8.040  0.6886E-85  0.1357E-84
  -8.030  0.6886E-85  0.1363E-84
  -8.020  0.6886E-85  0.1370E-84
  -8.010  0.6886E-85  0.1377E-84
  -8.000  0.6886E-85  0.1384E-84
  -7.990  0.6886E-85  0.1391E-84
  -7.980  0.6886E-85  0.1398E-84
  -7.970  0.6886E-85  0.1405E-84
  -7.960  0.6886E-85  0.1412E-84
  -7.950  0.6886E-85  0.1419E-84
  -7.940  0.6886E-85  0.1425E-84
  -7.930  0.6886E-85  0.1432E-84
  -7.920  0.6886E-85  0.1439E-84
  -7.910  0.6886E-85  0.1446E-84
  -7.900  0.6886E-85  0.1453E-84
  -7.890  0.6886E-85  0.1460E-84
  -7.880  0.6886E-85  0.1467E-84
  -7.870  0.6886E-85  0.1474E-84
  -7.860  0.6886E-85  0.1481E-84
  -7.850  0.6886E-85  0.1487E-84
  -7.840  0.6886E-85  0.1494E-84
  -7.830  0.6886E-85  0.1501E-84
  -7.820  0.6886E-85  0.1508E-84
  -7.810  0.6886E-85  0.1515E-84
  -7.800  0.6886E-85  0.1522E-84
  -7.790  0.6886E-85  0.1529E-84
  -7.780  0.6886E-85  0.1536E-84
  -7.770  0.6886E-85  0.1543E-84
  -7.760  0.6886E-85  0.1549E-84
  -7.750  0.6886E-85  0.1556E-84
  -7.740  0.6886E-85  0.1563E-84
  -7.730  0.6886E-85  0.1570E-84
  -7.720  0.6886E-85  0.1577E-84
  -7.710  0.6886E-85  0.1584E-84
  -7.700  0.6886E-85  0.1591E-84
  -7.690  0.6886E-85  0.1598E-84
  -7.680  0.6886E-85  0.1605E-84
  -7.670  0.6886E-85  0.1611E-84
  -7.660  0.6886E-85  0.1618E-84
  -7.650  0.6886E-85  0.1625E-84
  -7.640  0.6886E-85  0.1632E-84
  -7.630  0.6886E-85  0.1639E-84
  -7.620  0.6886E-85  0.1646E-84
  -7.610  0.6886E-85  0.1653E-84
  -7.600  0.6886E-85  0.1660E-84
  -7.590  0.6886E-85  0.1666E-84
  -7.580  0.6886E-85  0.1673E-84
  -7.570  0.6886E-85  0.1680E-84
  -7.560  0.6886E-85  0.1687E-84
  -7.550  0.6886E-85  0.1694E-84
  -7.540  0.6886E-85  0.1701E-84
  -7.530  0.6886E-85  0.1708E-84
  -7.520  0.6886E-85  0.1715E-84
  -7.510  0.6886E-85  0.1722E-84
  -7.500  0.6886E-85  0.1728E-84
  -7.490  0.6886E-85  0.1735E-84
  -7.480  0.6886E-85  0.1742E-84
  -7.470  0.6886E-85  0.1749E-84
  -7.460  0.6886E-85  0.1756E-84
  -7.450  0.6886E-85  0.1763E-84
  -7.440  0.6886E-85  0.1770E-84
  -7.430  0.6886E-85  0.1777E-84
  -7.420  0.6886E-85  0.1784E-84
  -7.410  0.6886E-85  0.1790E-84
  -7.400  0.6886E-85  0.1797E-84
  -7.390  0.6886E-85  0.1804E-84
  -7.380  0.6886E-85  0.1811E-84
  -7.370  0.6886E-85  0.1818E-84
  -7.360  0.6886E-85  0.1825E-84
  -7.350  0.6886E-85  0.1832E-84
  -7.340  0.6886E-85  0.1839E-84
  -7.330  0.6886E-85  0.1846E-84
  -7.320  0.6886E-85  0.1852E-84
  -7.310  0.6886E-85  0.1859E-84
  -7.300  0.6886E-85  0.1866E-84
  -7.290  0.6886E-85  0.1873E-84
  -7.280  0.6886E-85  0.1880E-84
  -7.270  0.6886E-85  0.1887E-84
  -7.260  0.6886E-85  0.1894E-84
  -7.250  0.6886E-85  0.1901E-84
  -7.240  0.6886E-85  0.1908E-84
  -7.230  0.6886E-85  0.1914E-84
  -7.220  0.6886E-85  0.1921E-84
  -7.210  0.6886E-85  0.1928E-84
  -7.200  0.6886E-85  0.1935E-84
  -7.190  0.6886E-85  0.1942E-84
  -7.180  0.6886E-85  0.1949E-84
  -7.170  0.6886E-85  0.1956E-84
  -7.160  0.6886E-85  0.1963E-84
  -7.150  0.6886E-85  0.1969E-84
  -7.140  0.6886E-85  0.1976E-84
  -7.130  0.6886E-85  0.1983E-84
  -7.120  0.6886E-85  0.1990E-84
  -7.110  0.6886E-85  0.1997E-84
  -7.100  0.6886E-85  0.2004E-84
  -7.090  0.6886E-85  0.2011E-84
  -7.080  0.6886E-85  0.2018E-84
  -7.070  0.6886E-85  0.2025E-84
  -7.060  0.6886E-85  0.2031E-84
  -7.050  0.6886E-85  0.2038E-84
  -7.040  0.6886E-85  0.2045E-84
  -7.030  0.6886E-85  0.2052E-84
  -7.020  0.6886E-85  0.2059E-84
  -7.010  0.6886E-85  0.2066E-84
  -7.000  0.6886E-85  0.2073E-84
  -6.990  0.6886E-85  0.2080E-84
  -6.980  0.6886E-85  0.2087E-84
  -6.970  0.6886E-85  0.2093E-84
  -6.960  0.6886E-85  0.2100E-84
  -6.950  0.6886E-85  0.2107E-84
  -6.940  0.6886E-85  0.2114E-84
  -6.930  0.6886E-85  0.2121E-84
  -6.920  0.6886E-85  0.2128E-84
  -6.910  0.6886E-85  0.2135E-84
  -6.900  0.6886E-85  0.2142E-84
  -6.890  0.6886E-85  0.2149E-84
  -6.880  0.6886E-85  0.2155E-84
  -6.870  0.6886E-85  0.2162E-84
  -6.860  0.6886E-85  0.2169E-84
  -6.850  0.6886E-85  0.2176E-84
  -6.840  0.6886E-85  0.2183E-84
  -6.830  0.6886E-85  0.2190E-84
  -6.820  0.6886E-85  0.2197E-84
  -6.810  0.6886E-85  0.2204E-84
  -6.800  0.6886E-85  0.2211E-84
  -6.790  0.6886E-85  0.2217E-84
  -6.780  0.6886E-85  0.2224E-84
  -6.770  0.6886E-85  0.2231E-84
  -6.760  0.6886E-85  0.2238E-84
  -6.750  0.6886E-85  0.2245E-84
  -6.740  0.6886E-85  0.2252E-84
  -6.730  0.6886E-85  0.2259E-84
  -6.720  0.6886E-85  0.2266E-84
  -6.710  0.6886E-85  0.2272E-84
  -6.700  0.6886E-85  0.2279E-84
  -6.690  0.6886E-85  0.2286E-84
  -6.680  0.6886E-85  0.2293E-84
  -6.670  0.6886E-85  0.2300E-84
  -6.660  0.6886E-85  0.2307E-84
  -6.650  0.6886E-85  0.2314E-84
  -6.640  0.6886E-85  0.2321E-84
  -6.630  0.6886E-85  0.2328E-84
  -6.620  0.6886E-85  0.2334E-84
  -6.610  0.6886E-85  0.2341E-84
  -6.600  0.6886E-85  0.2348E-84
  -6.590  0.6886E-85  0.2355E-84
  -6.580  0.6886E-85  0.2362E-84
  -6.570  0.6886E-85  0.2369E-84
  -6.560  0.6886E-85  0.2376E-84
  -6.550  0.6886E-85  0.2383E-84
  -6.540  0.6886E-85  0.2390E-84
  -6.530  0.6886E-85  0.2396E-84
  -6.520  0.6886E-85  0.2403E-84
  -6.510  0.6886E-85  0.2410E-84
  -6.500  0.6886E-85  0.2417E-84
  -6.490  0.6886E-85  0.2424E-84
  -6.480  0.6886E-85  0.2431E-84
  -6.470  0.6886E-85  0.2438E-84
  -6.460  0.6886E-85  0.2445E-84
  -6.450  0.6886E-85  0.2452E-84
  -6.440  0.6886E-85  0.2458E-84
  -6.430  0.6886E-85  0.2465E-84
  -6.420  0.6886E-85  0.2472E-84
  -6.410  0.6886E-85  0.2479E-84
  -6.400  0.6886E-85  0.2486E-84
  -6.390  0.6886E-85  0.2493E-84
  -6.380  0.6886E-85  0.2500E-84
  -6.370  0.6886E-85  0.2507E-84
  -6.360  0.6886E-85  0.2514E-84
  -6.350  0.6886E-85  0.2520E-84
  -6.340  0.6886E-85  0.2527E-84
  -6.330  0.6886E-85  0.2534E-84
  -6.320  0.6886E-85  0.2541E-84
  -6.310  0.6886E-85  0.2548E-84
  -6.300  0.6886E-85  0.2555E-84
  -6.290  0.6886E-85  0.2562E-84
  -6.280  0.6886E-85  0.2569E-84
  -6.270  0.6886E-85  0.2575E-84
  -6.260  0.6886E-85  0.2582E-84
  -6.250  0.6886E-85  0.2589E-84
  -6.240  0.6886E-85  0.2596E-84
  -6.230  0.6886E-85  0.2603E-84
  -6.220  0.6886E-85  0.2610E-84
  -6.210  0.6886E-85  0.2617E-84
  -6.200  0.6886E-85  0.2624E-84
  -6.190  0.6886E-85  0.2631E-84
  -6.180  0.6886E-85  0.2637E-84
  -6.170  0.6886E-85  0.2644E-84
  -6.160  0.6886E-85  0.2651E-84
  -6.150  0.6886E-85  0.2658E-84
  -6.140  0.6886E-85  0.2665E-84
  -6.130  0.6886E-85  0.2672E-84
  -6.120  0.6886E-85  0.2679E-84
  -6.110  0.6886E-85  0.2686E-84
  -6.100  0.6886E-85  0.2693E-84
  -6.090  0.6886E-85  0.2699E-84
  -6.080  0.6886E-85  0.2706E-84
  -6.070  0.6886E-85  0.2713E-84
  -6.060  0.6886E-85  0.2720E-84
  -6.050  0.6886E-85  0.2727E-84
  -6.040  0.6886E-85  0.2734E-84
  -6.030  0.6886E-85  0.2741E-84
  -6.020  0.6886E-85  0.2748E-84
  -6.010  0.6886E-85  0.2755E-84
  -6.000  0.6886E-85  0.2761E-84
  -5.990  0.6886E-85  0.2768E-84
  -5.980  0.6886E-85  0.2775E-84
  -5.970  0.6886E-85  0.2782E-84
  -5.960  0.6886E-85  0.2789E-84
  -5.950  0.6886E-85  0.2796E-84
  -5.940  0.6886E-85  0.2803E-84
  -5.930  0.6886E-85  0.2810E-84
  -5.920  0.6886E-85  0.2817E-84
  -5.910  0.6886E-85  0.2823E-84
  -5.900  0.6886E-85  0.2830E-84
  -5.890  0.6886E-85  0.2837E-84
  -5.880  0.6886E-85  0.2844E-84
  -5.870  0.6886E-85  0.2851E-84
  -5.860  0.6886E-85  0.2858E-84
  -5.850  0.6886E-85  0.2865E-84
  -5.840  0.6886E-85  0.2872E-84
  -5.830  0.6886E-85  0.2878E-84
  -5.820  0.6886E-85  0.2885E-84
  -5.810  0.6886E-85  0.2892E-84
  -5.800  0.6886E-85  0.2899E-84
  -5.790  0.6886E-85  0.2906E-84
  -5.780  0.6886E-85  0.2913E-84
  -5.770  0.6886E-85  0.2920E-84
  -5.760  0.6886E-85  0.2927E-84
  -5.750  0.6886E-85  0.2934E-84
  -5.740  0.6886E-85  0.2940E-84
  -5.730  0.6886E-85  0.2947E-84
  -5.720  0.6886E-85  0.2954E-84
  -5.710  0.6886E-85  0.2961E-84
  -5.700  0.6886E-85  0.2968E-84
  -5.690  0.6886E-85  0.2975E-84
  -5.680  0.6886E-85  0.2982E-84
  -5.670  0.6886E-85  0.2989E-84
  -5.660  0.6886E-85  0.2996E-84
  -5.650  0.6886E-85  0.3002E-84
  -5.640  0.6886E-85  0.3009E-84
  -5.630  0.6886E-85  0.3016E-84
  -5.620  0.6886E-85  0.3023E-84
  -5.610  0.6886E-85  0.3030E-84
  -5.600  0.6886E-85  0.3037E-84
  -5.590  0.6886E-85  0.3044E-84
  -5.580  0.6886E-85  0.3051E-84
  -5.570  0.6886E-85  0.3058E-84
  -5.560  0.6886E-85  0.3064E-84
  -5.550  0.6886E-85  0.3071E-84
  -5.540  0.6886E-85  0.3078E-84
  -5.530  0.6886E-85  0.3085E-84
  -5.520  0.6886E-85  0.3092E-84
  -5.510  0.6886E-85  0.3099E-84
  -5.500  0.6886E-85  0.3106E-84
  -5.490  0.6886E-85  0.3113E-84
  -5.480  0.6886E-85  0.3120E-84
  -5.470  0.6886E-85  0.3126E-84
  -5.460  0.6886E-85  0.3133E-84
  -5.450  0.6886E-85  0.3140E-84
  -5.440  0.6886E-85  0.3147E-84
  -5.430  0.6886E-85  0.3154E-84
  -5.420  0.6886E-85  0.3161E-84
  -5.410  0.6886E-85  0.3168E-84
  -5.400  0.6886E-85  0.3175E-84
  -5.390  0.6886E-85  0.3181E-84
  -5.380  0.6886E-85  0.3188E-84
  -5.370  0.6886E-85  0.3195E-84
  -5.360  0.6886E-85  0.3202E-84
  -5.350  0.6886E-85  0.3209E-84
  -5.340  0.6886E-85  0.3216E-84
  -5.330  0.6886E-85  0.3223E-84
  -5.320  0.6886E-85  0.3230E-84
  -5.310  0.6886E-85  0.3237E-84
  -5.300  0.6886E-85  0.3243E-84
  -5.290  0.6886E-85  0.3250E-84
  -5.280  0.6886E-85  0.3257E-84
  -5.270  0.6886E-85  0.3264E-84
  -5.260  0.6886E-85  0.3271E-84
  -5.250  0.6886E-85  0.3278E-84
  -5.240  0.6886E-85  0.3285E-84
  -5.230  0.6886E-85  0.3292E-84
  -5.220  0.6886E-85  0.3299E-84
  -5.210  0.6886E-85  0.3305E-84
  -5.200  0.6886E-85  0.3312E-84
  -5.190  0.6886E-85  0.3319E-84
  -5.180  0.6886E-85  0.3326E-84
  -5.170  0.6886E-85  0.3333E-84
  -5.160  0.6886E-85  0.3340E-84
  -5.150  0.6886E-85  0.3347E-84
  -5.140  0.6887E-85  0.3354E-84
  -5.130  0.6895E-85  0.3361E-84
  -5.120  0.6957E-85  0.3368E-84
  -5.110  0.7435E-85  0.3375E-84
  -5.100  0.1106E-84  0.3386E-84
  -5.090  0.3834E-84  0.3424E-84
  -5.080  0.2413E-83  0.3666E-84
  -5.070  0.1735E-82  0.5401E-84
  -5.060  0.1261E-81  0.1801E-83
  -5.050  0.9094E-81  0.1089E-82
  -5.040  0.6490E-80  0.7579E-82
  -5.030  0.4582E-79  0.5340E-81
  -5.020  0.3200E-78  0.3734E-80
  -5.010  0.2211E-77  0.2585E-79
  -5.000  0.1511E-76  0.1770E-78
  -4.990  0.1022E-75  0.1199E-77
  -4.980  0.6836E-75  0.8035E-77
  -4.970  0.4524E-74  0.5327E-76
  -4.960  0.2961E-73  0.3494E-75
  -4.950  0.1918E-72  0.2267E-74
  -4.940  0.1229E-71  0.1455E-73
  -4.930  0.7786E-71  0.9241E-73
  -4.920  0.4881E-70  0.5805E-72
  -4.910  0.3027E-69  0.3608E-71
  -4.900  0.1857E-68  0.2218E-70
  -4.890  0.1127E-67  0.1349E-69
  -4.880  0.6768E-67  0.8117E-69
  -4.870  0.4020E-66  0.4832E-68
  -4.860  0.2362E-65  0.2845E-67
  -4.850  0.1373E-64  0.1657E-66
  -4.840  0.7895E-64  0.9552E-66
  -4.830  0.4491E-63  0.5446E-65
  -4.820  0.2527E-62  0.3072E-64
  -4.810  0.1407E-61  0.1714E-63
  -4.800  0.7747E-61  0.9461E-63
  -4.790  0.4221E-60  0.5167E-62
  -4.780  0.2275E-59  0.2791E-61
  -4.770  0.1213E-58  0.1492E-60
  -4.760  0.6396E-58  0.7887E-60
  -4.750  0.3337E-57  0.4126E-59
  -4.740  0.1722E-56  0.2135E-58
  -4.730  0.8793E-56  0.1093E-57
  -4.720  0.4442E-55  0.5534E-57
  -4.710  0.2219E-54  0.2773E-56
  -4.700  0.1097E-53  0.1374E-55
  -4.690  0.5364E-53  0.6739E-55
  -4.680  0.2595E-52  0.3269E-54
  -4.670  0.1242E-51  0.1569E-53
  -4.660  0.5879E-51  0.7447E-53
  -4.650  0.2753E-50  0.3498E-52
  -4.640  0.1275E-49  0.1625E-51
  -4.630  0.5845E-49  0.7470E-51
  -4.620  0.2650E-48  0.3397E-50
  -4.610  0.1189E-47  0.1528E-49
  -4.600  0.5273E-47  0.6802E-49
  -4.590  0.2315E-46  0.2995E-48
  -4.580  0.1005E-45  0.1305E-47
  -4.570  0.4317E-45  0.5621E-47
  -4.560  0.1834E-44  0.2397E-46
  -4.550  0.7711E-44  0.1011E-45
  -4.540  0.3207E-43  0.4217E-45
  -4.530  0.1319E-42  0.1741E-44
  -4.520  0.5368E-42  0.7109E-44
  -4.510  0.2161E-41  0.2872E-43
  -4.500  0.8607E-41  0.1148E-42
  -4.490  0.3391E-40  0.4539E-42
  -4.480  0.1322E-39  0.1775E-41
  -4.470  0.5095E-39  0.6871E-41
  -4.460  0.1943E-38  0.2631E-40
  -4.450  0.7333E-38  0.9964E-40
  -4.440  0.2737E-37  0.3734E-39
  -4.430  0.1011E-36  0.1384E-38
  -4.420  0.3692E-36  0.5076E-38
  -4.410  0.1334E-35  0.1842E-37
  -4.400  0.4770E-35  0.6611E-37
  -4.390  0.1687E-34  0.2348E-36
  -4.380  0.5901E-34  0.8249E-36
  -4.370  0.2042E-33  0.2867E-35
  -4.360  0.6992E-33  0.9860E-35
  -4.350  0.2368E-32  0.3354E-34
  -4.340  0.7935E-32  0.1129E-33
  -4.330  0.2630E-31  0.3759E-33
  -4.320  0.8625E-31  0.1238E-32
  -4.310  0.2798E-30  0.4036E-32
  -4.300  0.8979E-30  0.1301E-31
  -4.290  0.2850E-29  0.4152E-31
  -4.280  0.8952E-29  0.1310E-30
  -4.270  0.2781E-28  0.4091E-30
  -4.260  0.8548E-28  0.1264E-29
  -4.250  0.2599E-27  0.3863E-29
  -4.240  0.7818E-27  0.1168E-28
  -4.230  0.2326E-26  0.3494E-28
  -4.220  0.6848E-26  0.1034E-27
  -4.210  0.1994E-25  0.3028E-27
  -4.200  0.5745E-25  0.8774E-27
  -4.190  0.1638E-24  0.2515E-26
  -4.180  0.4617E-24  0.7132E-26
  -4.170  0.1288E-23  0.2001E-25
  -4.160  0.3554E-23  0.5555E-25
  -4.150  0.9702E-23  0.1526E-24
  -4.140  0.2620E-22  0.4146E-24
  -4.130  0.7000E-22  0.1115E-23
  -4.120  0.1850E-21  0.2965E-23
  -4.110  0.4839E-21  0.7804E-23
  -4.100  0.1252E-20  0.2032E-22
  -4.090  0.3204E-20  0.5236E-22
  -4.080  0.8112E-20  0.1335E-21
  -4.070  0.2032E-19  0.3367E-21
  -4.060  0.5036E-19  0.8402E-21
  -4.050  0.1235E-18  0.2075E-20
  -4.040  0.2995E-18  0.5070E-20
  -4.030  0.7187E-18  0.1226E-19
  -4.020  0.1706E-17  0.2932E-19
  -4.010  0.4008E-17  0.6940E-19
  -4.000  0.9316E-17  0.1626E-18
  -3.990  0.2142E-16  0.3768E-18
  -3.980  0.4873E-16  0.8641E-18
  -3.970  0.1097E-15  0.1961E-17
  -3.960  0.2443E-15  0.4404E-17
  -3.950  0.5382E-15  0.9786E-17
  -3.940  0.1173E-14  0.2152E-16
  -3.930  0.2531E-14  0.4683E-16
  -3.920  0.5403E-14  0.1009E-15
  -3.910  0.1141E-13  0.2150E-15
  -3.900  0.2385E-13  0.4534E-15
  -3.890  0.4931E-13  0.9465E-15
  -3.880  0.1009E-12  0.1956E-14
  -3.870  0.2043E-12  0.3999E-14
  -3.860  0.4094E-12  0.8092E-14
  -3.850  0.8117E-12  0.1621E-13
  -3.840  0.1593E-11  0.3214E-13
  -3.830  0.3093E-11  0.6307E-13
  -3.820  0.5945E-11  0.1225E-12
  -3.810  0.1131E-10  0.2356E-12
  -3.800  0.2129E-10  0.4485E-12
  -3.790  0.3967E-10  0.8452E-12
  -3.780  0.7316E-10  0.1577E-11
  -3.770  0.1336E-09  0.2912E-11
  -3.760  0.2413E-09  0.5326E-11
  -3.750  0.4317E-09  0.9643E-11
  -3.740  0.7645E-09  0.1729E-10
  -3.730  0.1340E-08  0.3069E-10
  -3.720  0.2326E-08  0.5395E-10
  -3.710  0.3997E-08  0.9393E-10
  -3.700  0.6801E-08  0.1619E-09
  -3.690  0.1146E-07  0.2765E-09
  -3.680  0.1912E-07  0.4677E-09
  -3.670  0.3158E-07  0.7835E-09
  -3.660  0.5166E-07  0.1300E-08
  -3.650  0.8371E-07  0.2137E-08
  -3.640  0.1343E-06  0.3481E-08
  -3.630  0.2135E-06  0.5616E-08
  -3.620  0.3362E-06  0.8977E-08
  -3.610  0.5242E-06  0.1422E-07
  -3.600  0.8099E-06  0.2232E-07
  -3.590  0.1239E-05  0.3471E-07
  -3.580  0.1879E-05  0.5351E-07
  -3.570  0.2823E-05  0.8174E-07
  -3.560  0.4202E-05  0.1238E-06
  -3.550  0.6196E-05  0.1857E-06
  -3.540  0.9054E-05  0.2763E-06
  -3.530  0.1311E-04  0.4074E-06
  -3.520  0.1881E-04  0.5954E-06
  -3.510  0.2674E-04  0.8629E-06
  -3.500  0.3768E-04  0.1240E-05
  -3.490  0.5260E-04  0.1766E-05
  -3.480  0.7278E-04  0.2493E-05
  -3.470  0.9980E-04  0.3491E-05
  -3.460  0.1356E-03  0.4848E-05
  -3.450  0.1826E-03  0.6674E-05
  -3.440  0.2437E-03  0.9111E-05
  -3.430  0.3224E-03  0.1234E-04
  -3.420  0.4226E-03  0.1656E-04
  -3.410  0.5490E-03  0.2205E-04
  -3.400  0.7069E-03  0.2912E-04
  -3.390  0.9021E-03  0.3814E-04
  -3.380  0.1141E-02  0.4955E-04
  -3.370  0.1430E-02  0.6386E-04
  -3.360  0.1777E-02  0.8163E-04
  -3.350  0.2189E-02  0.1035E-03
  -3.340  0.2673E-02  0.1303E-03
  -3.330  0.3236E-02  0.1626E-03
  -3.320  0.3883E-02  0.2014E-03
  -3.310  0.4621E-02  0.2477E-03
  -3.300  0.5453E-02  0.3022E-03
  -3.290  0.6383E-02  0.3660E-03
  -3.280  0.7411E-02  0.4401E-03
  -3.270  0.8538E-02  0.5255E-03
  -3.260  0.9761E-02  0.6231E-03
  -3.250  0.1108E-01  0.7339E-03
  -3.240  0.1248E-01  0.8587E-03
  -3.230  0.1397E-01  0.9984E-03
  -3.220  0.1553E-01  0.1154E-02
  -3.210  0.1716E-01  0.1325E-02
  -3.200  0.1886E-01  0.1514E-02
  -3.190  0.2061E-01  0.1720E-02
  -3.180  0.2240E-01  0.1944E-02
  -3.170  0.2424E-01  0.2186E-02
  -3.160  0.2611E-01  0.2448E-02
  -3.150  0.2802E-01  0.2728E-02
  -3.140  0.2994E-01  0.3027E-02
  -3.130  0.3189E-01  0.3346E-02
  -3.120  0.3385E-01  0.3685E-02
  -3.110  0.3581E-01  0.4043E-02
  -3.100  0.3776E-01  0.4420E-02
  -3.090  0.3970E-01  0.4817E-02
  -3.080  0.4160E-01  0.5233E-02
  -3.070  0.4345E-01  0.5668E-02
  -3.060  0.4523E-01  0.6120E-02
  -3.050  0.4693E-01  0.6589E-02
  -3.040  0.4854E-01  0.7075E-02
  -3.030  0.5002E-01  0.7575E-02
  -3.020  0.5139E-01  0.8089E-02
  -3.010  0.5263E-01  0.8615E-02
  -3.000  0.5373E-01  0.9152E-02
  -2.990  0.5472E-01  0.9700E-02
  -2.980  0.5560E-01  0.1026E-01
  -2.970  0.5639E-01  0.1082E-01
  -2.960  0.5712E-01  0.1139E-01
  -2.950  0.5781E-01  0.1197E-01
  -2.940  0.5852E-01  0.1255E-01
  -2.930  0.5925E-01  0.1315E-01
  -2.920  0.6006E-01  0.1375E-01
  -2.910  0.6098E-01  0.1436E-01
  -2.900  0.6201E-01  0.1498E-01
  -2.890  0.6319E-01  0.1561E-01
  -2.880  0.6451E-01  0.1625E-01
  -2.870  0.6597E-01  0.1691E-01
  -2.860  0.6757E-01  0.1759E-01
  -2.850  0.6927E-01  0.1828E-01
  -2.840  0.7106E-01  0.1899E-01
  -2.830  0.7289E-01  0.1972E-01
  -2.820  0.7472E-01  0.2047E-01
  -2.810  0.7651E-01  0.2123E-01
  -2.800  0.7823E-01  0.2202E-01
  -2.790  0.7984E-01  0.2281E-01
  -2.780  0.8129E-01  0.2363E-01
  -2.770  0.8257E-01  0.2445E-01
  -2.760  0.8365E-01  0.2529E-01
  -2.750  0.8453E-01  0.2613E-01
  -2.740  0.8518E-01  0.2699E-01
  -2.730  0.8563E-01  0.2784E-01
  -2.720  0.8586E-01  0.2870E-01
  -2.710  0.8590E-01  0.2956E-01
  -2.700  0.8576E-01  0.3042E-01
  -2.690  0.8547E-01  0.3127E-01
  -2.680  0.8506E-01  0.3212E-01
  -2.670  0.8455E-01  0.3297E-01
  -2.660  0.8398E-01  0.3381E-01
  -2.650  0.8340E-01  0.3464E-01
  -2.640  0.8284E-01  0.3547E-01
  -2.630  0.8235E-01  0.3629E-01
  -2.620  0.8199E-01  0.3711E-01
  -2.610  0.8180E-01  0.3793E-01
  -2.600  0.8183E-01  0.3875E-01
  -2.590  0.8212E-01  0.3957E-01
  -2.580  0.8270E-01  0.4040E-01
  -2.570  0.8362E-01  0.4124E-01
  -2.560  0.8488E-01  0.4208E-01
  -2.550  0.8649E-01  0.4295E-01
  -2.540  0.8844E-01  0.4383E-01
  -2.530  0.9071E-01  0.4474E-01
  -2.520  0.9324E-01  0.4567E-01
  -2.510  0.9600E-01  0.4663E-01
  -2.500  0.9889E-01  0.4762E-01
  -2.490  0.1019E+00  0.4864E-01
  -2.480  0.1048E+00  0.4969E-01
  -2.470  0.1076E+00  0.5076E-01
  -2.460  0.1103E+00  0.5187E-01
  -2.450  0.1127E+00  0.5300E-01
  -2.440  0.1148E+00  0.5414E-01
  -2.430  0.1165E+00  0.5531E-01
  -2.420  0.1178E+00  0.5649E-01
  -2.410  0.1187E+00  0.5767E-01
  -2.400  0.1191E+00  0.5886E-01
  -2.390  0.1192E+00  0.6006E-01
  -2.380  0.1188E+00  0.6124E-01
  -2.370  0.1182E+00  0.6243E-01
  -2.360  0.1172E+00  0.6360E-01
  -2.350  0.1160E+00  0.6476E-01
  -2.340  0.1146E+00  0.6590E-01
  -2.330  0.1131E+00  0.6704E-01
  -2.320  0.1115E+00  0.6815E-01
  -2.310  0.1099E+00  0.6925E-01
  -2.300  0.1082E+00  0.7033E-01
  -2.290  0.1066E+00  0.7140E-01
  -2.280  0.1051E+00  0.7245E-01
  -2.270  0.1037E+00  0.7349E-01
  -2.260  0.1024E+00  0.7451E-01
  -2.250  0.1014E+00  0.7552E-01
  -2.240  0.1005E+00  0.7653E-01
  -2.230  0.9980E-01  0.7753E-01
  -2.220  0.9941E-01  0.7852E-01
  -2.210  0.9932E-01  0.7951E-01
  -2.200  0.9956E-01  0.8051E-01
  -2.190  0.1001E+00  0.8151E-01
  -2.180  0.1011E+00  0.8252E-01
  -2.170  0.1024E+00  0.8355E-01
  -2.160  0.1041E+00  0.8459E-01
  -2.150  0.1062E+00  0.8565E-01
  -2.140  0.1086E+00  0.8674E-01
  -2.130  0.1113E+00  0.8785E-01
  -2.120  0.1143E+00  0.8899E-01
  -2.110  0.1175E+00  0.9017E-01
  -2.100  0.1208E+00  0.9137E-01
  -2.090  0.1243E+00  0.9262E-01
  -2.080  0.1278E+00  0.9389E-01
  -2.070  0.1313E+00  0.9521E-01
  -2.060  0.1348E+00  0.9656E-01
  -2.050  0.1381E+00  0.9794E-01
  -2.040  0.1412E+00  0.9935E-01
  -2.030  0.1441E+00  0.1008E+00
  -2.020  0.1468E+00  0.1023E+00
  -2.010  0.1491E+00  0.1037E+00
  -2.000  0.1510E+00  0.1053E+00
  -1.990  0.1526E+00  0.1068E+00
  -1.980  0.1537E+00  0.1083E+00
  -1.970  0.1543E+00  0.1099E+00
  -1.960  0.1545E+00  0.1114E+00
  -1.950  0.1541E+00  0.1130E+00
  -1.940  0.1532E+00  0.1145E+00
  -1.930  0.1518E+00  0.1160E+00
  -1.920  0.1499E+00  0.1175E+00
  -1.910  0.1475E+00  0.1190E+00
  -1.900  0.1447E+00  0.1204E+00
  -1.890  0.1416E+00  0.1218E+00
  -1.880  0.1383E+00  0.1232E+00
  -1.870  0.1348E+00  0.1246E+00
  -1.860  0.1313E+00  0.1259E+00
  -1.850  0.1278E+00  0.1272E+00
  -1.840  0.1246E+00  0.1284E+00
  -1.830  0.1217E+00  0.1296E+00
  -1.820  0.1192E+00  0.1308E+00
  -1.810  0.1171E+00  0.1320E+00
  -1.800  0.1156E+00  0.1331E+00
  -1.790  0.1147E+00  0.1343E+00
  -1.780  0.1144E+00  0.1354E+00
  -1.770  0.1147E+00  0.1366E+00
  -1.760  0.1155E+00  0.1377E+00
  -1.750  0.1169E+00  0.1389E+00
  -1.740  0.1187E+00  0.1401E+00
  -1.730  0.1208E+00  0.1413E+00
  -1.720  0.1233E+00  0.1425E+00
  -1.710  0.1260E+00  0.1438E+00
  -1.700  0.1289E+00  0.1451E+00
  -1.690  0.1318E+00  0.1464E+00
  -1.680  0.1347E+00  0.1477E+00
  -1.670  0.1376E+00  0.1491E+00
  -1.660  0.1404E+00  0.1505E+00
  -1.650  0.1431E+00  0.1520E+00
  -1.640  0.1456E+00  0.1534E+00
  -1.630  0.1480E+00  0.1549E+00
  -1.620  0.1501E+00  0.1564E+00
  -1.610  0.1521E+00  0.1579E+00
  -1.600  0.1538E+00  0.1595E+00
  -1.590  0.1553E+00  0.1610E+00
  -1.580  0.1567E+00  0.1626E+00
  -1.570  0.1578E+00  0.1641E+00
  -1.560  0.1588E+00  0.1657E+00
  -1.550  0.1596E+00  0.1673E+00
  -1.540  0.1604E+00  0.1689E+00
  -1.530  0.1610E+00  0.1705E+00
  -1.520  0.1617E+00  0.1722E+00
  -1.510  0.1624E+00  0.1738E+00
  -1.500  0.1632E+00  0.1754E+00
  -1.490  0.1642E+00  0.1771E+00
  -1.480  0.1653E+00  0.1787E+00
  -1.470  0.1665E+00  0.1804E+00
  -1.460  0.1680E+00  0.1821E+00
  -1.450  0.1697E+00  0.1838E+00
  -1.440  0.1715E+00  0.1855E+00
  -1.430  0.1735E+00  0.1872E+00
  -1.420  0.1754E+00  0.1890E+00
  -1.410  0.1774E+00  0.1907E+00
  -1.400  0.1791E+00  0.1925E+00
  -1.390  0.1807E+00  0.1943E+00
  -1.380  0.1818E+00  0.1962E+00
  -1.370  0.1826E+00  0.1980E+00
  -1.360  0.1828E+00  0.1998E+00
  -1.350  0.1825E+00  0.2016E+00
  -1.340  0.1815E+00  0.2034E+00
  -1.330  0.1799E+00  0.2052E+00
  -1.320  0.1777E+00  0.2070E+00
  -1.310  0.1750E+00  0.2088E+00
  -1.300  0.1717E+00  0.2105E+00
  -1.290  0.1681E+00  0.2122E+00
  -1.280  0.1640E+00  0.2138E+00
  -1.270  0.1598E+00  0.2154E+00
  -1.260  0.1554E+00  0.2170E+00
  -1.250  0.1510E+00  0.2185E+00
  -1.240  0.1467E+00  0.2199E+00
  -1.230  0.1426E+00  0.2214E+00
  -1.220  0.1388E+00  0.2228E+00
  -1.210  0.1353E+00  0.2241E+00
  -1.200  0.1323E+00  0.2254E+00
  -1.190  0.1298E+00  0.2267E+00
  -1.180  0.1278E+00  0.2280E+00
  -1.170  0.1264E+00  0.2293E+00
  -1.160  0.1256E+00  0.2305E+00
  -1.150  0.1256E+00  0.2318E+00
  -1.140  0.1262E+00  0.2330E+00
  -1.130  0.1274E+00  0.2343E+00
  -1.120  0.1294E+00  0.2356E+00
  -1.110  0.1320E+00  0.2369E+00
  -1.100  0.1353E+00  0.2383E+00
  -1.090  0.1391E+00  0.2397E+00
  -1.080  0.1435E+00  0.2411E+00
  -1.070  0.1483E+00  0.2426E+00
  -1.060  0.1535E+00  0.2441E+00
  -1.050  0.1590E+00  0.2457E+00
  -1.040  0.1646E+00  0.2474E+00
  -1.030  0.1704E+00  0.2491E+00
  -1.020  0.1762E+00  0.2508E+00
  -1.010  0.1818E+00  0.2527E+00
  -1.000  0.1873E+00  0.2545E+00
  -0.990  0.1926E+00  0.2565E+00
  -0.980  0.1976E+00  0.2584E+00
  -0.970  0.2022E+00  0.2604E+00
  -0.960  0.2064E+00  0.2625E+00
  -0.950  0.2102E+00  0.2646E+00
  -0.940  0.2135E+00  0.2667E+00
  -0.930  0.2162E+00  0.2689E+00
  -0.920  0.2185E+00  0.2711E+00
  -0.910  0.2201E+00  0.2733E+00
  -0.900  0.2212E+00  0.2755E+00
  -0.890  0.2216E+00  0.2777E+00
  -0.880  0.2214E+00  0.2799E+00
  -0.870  0.2205E+00  0.2821E+00
  -0.860  0.2190E+00  0.2843E+00
  -0.850  0.2169E+00  0.2865E+00
  -0.840  0.2141E+00  0.2886E+00
  -0.830  0.2109E+00  0.2908E+00
  -0.820  0.2072E+00  0.2928E+00
  -0.810  0.2032E+00  0.2949E+00
  -0.800  0.1989E+00  0.2968E+00
  -0.790  0.1946E+00  0.2988E+00
  -0.780  0.1904E+00  0.3007E+00
  -0.770  0.1864E+00  0.3026E+00
  -0.760  0.1827E+00  0.3044E+00
  -0.750  0.1795E+00  0.3062E+00
  -0.740  0.1769E+00  0.3079E+00
  -0.730  0.1749E+00  0.3097E+00
  -0.720  0.1736E+00  0.3114E+00
  -0.710  0.1731E+00  0.3132E+00
  -0.700  0.1732E+00  0.3149E+00
  -0.690  0.1739E+00  0.3166E+00
  -0.680  0.1751E+00  0.3184E+00
  -0.670  0.1766E+00  0.3202E+00
  -0.660  0.1785E+00  0.3219E+00
  -0.650  0.1804E+00  0.3237E+00
  -0.640  0.1822E+00  0.3256E+00
  -0.630  0.1839E+00  0.3274E+00
  -0.620  0.1852E+00  0.3293E+00
  -0.610  0.1861E+00  0.3311E+00
  -0.600  0.1864E+00  0.3330E+00
  -0.590  0.1863E+00  0.3348E+00
  -0.580  0.1855E+00  0.3367E+00
  -0.570  0.1841E+00  0.3385E+00
  -0.560  0.1821E+00  0.3404E+00
  -0.550  0.1797E+00  0.3422E+00
  -0.540  0.1768E+00  0.3439E+00
  -0.530  0.1737E+00  0.3457E+00
  -0.520  0.1703E+00  0.3474E+00
  -0.510  0.1668E+00  0.3490E+00
  -0.500  0.1634E+00  0.3507E+00
  -0.490  0.1602E+00  0.3523E+00
  -0.480  0.1573E+00  0.3538E+00
  -0.470  0.1549E+00  0.3554E+00
  -0.460  0.1532E+00  0.3569E+00
  -0.450  0.1521E+00  0.3584E+00
  -0.440  0.1519E+00  0.3600E+00
  -0.430  0.1527E+00  0.3615E+00
  -0.420  0.1544E+00  0.3630E+00
  -0.410  0.1571E+00  0.3646E+00
  -0.400  0.1608E+00  0.3662E+00
  -0.390  0.1655E+00  0.3679E+00
  -0.380  0.1711E+00  0.3696E+00
  -0.370  0.1774E+00  0.3714E+00
  -0.360  0.1844E+00  0.3732E+00
  -0.350  0.1918E+00  0.3751E+00
  -0.340  0.1994E+00  0.3771E+00
  -0.330  0.2072E+00  0.3792E+00
  -0.320  0.2148E+00  0.3813E+00
  -0.310  0.2220E+00  0.3835E+00
  -0.300  0.2288E+00  0.3858E+00
  -0.290  0.2349E+00  0.3882E+00
  -0.280  0.2403E+00  0.3906E+00
  -0.270  0.2448E+00  0.3930E+00
  -0.260  0.2485E+00  0.3955E+00
  -0.250  0.2512E+00  0.3980E+00
  -0.240  0.2531E+00  0.4006E+00
  -0.230  0.2543E+00  0.4031E+00
  -0.220  0.2546E+00  0.4057E+00
  -0.210  0.2544E+00  0.4082E+00
  -0.200  0.2535E+00  0.4107E+00
  -0.190  0.2522E+00  0.4133E+00
  -0.180  0.2505E+00  0.4158E+00
  -0.170  0.2484E+00  0.4182E+00
  -0.160  0.2461E+00  0.4207E+00
  -0.150  0.2435E+00  0.4231E+00
  -0.140  0.2407E+00  0.4255E+00
  -0.130  0.2377E+00  0.4279E+00
  -0.120  0.2345E+00  0.4303E+00
  -0.110  0.2311E+00  0.4326E+00
  -0.100  0.2276E+00  0.4349E+00
  -0.090  0.2240E+00  0.4371E+00
  -0.080  0.2203E+00  0.4393E+00
  -0.070  0.2165E+00  0.4415E+00
  -0.060  0.2127E+00  0.4436E+00
  -0.050  0.2091E+00  0.4457E+00
  -0.040  0.2056E+00  0.4477E+00
  -0.030  0.2023E+00  0.4498E+00
  -0.020  0.1993E+00  0.4518E+00
  -0.010  0.1967E+00  0.4537E+00
   0.000  0.1945E+00  0.4557E+00
   0.010  0.1928E+00  0.4576E+00
   0.020  0.1915E+00  0.4595E+00
   0.030  0.1908E+00  0.4614E+00
   0.040  0.1906E+00  0.4633E+00
   0.050  0.1909E+00  0.4652E+00
   0.060  0.1917E+00  0.4671E+00
   0.070  0.1929E+00  0.4691E+00
   0.080  0.1944E+00  0.4710E+00
   0.090  0.1963E+00  0.4730E+00
   0.100  0.1985E+00  0.4750E+00
   0.110  0.2008E+00  0.4770E+00
   0.120  0.2032E+00  0.4790E+00
   0.130  0.2056E+00  0.4811E+00
   0.140  0.2079E+00  0.4831E+00
   0.150  0.2100E+00  0.4852E+00
   0.160  0.2118E+00  0.4874E+00
   0.170  0.2133E+00  0.4895E+00
   0.180  0.2143E+00  0.4916E+00
   0.190  0.2149E+00  0.4938E+00
   0.200  0.2148E+00  0.4959E+00
   0.210  0.2143E+00  0.4981E+00
   0.220  0.2132E+00  0.5002E+00
   0.230  0.2115E+00  0.5023E+00
   0.240  0.2094E+00  0.5044E+00
   0.250  0.2070E+00  0.5065E+00
   0.260  0.2042E+00  0.5085E+00
   0.270  0.2013E+00  0.5105E+00
   0.280  0.1985E+00  0.5125E+00
   0.290  0.1957E+00  0.5145E+00
   0.300  0.1933E+00  0.5164E+00
   0.310  0.1913E+00  0.5183E+00
   0.320  0.1898E+00  0.5202E+00
   0.330  0.1890E+00  0.5221E+00
   0.340  0.1888E+00  0.5240E+00
   0.350  0.1894E+00  0.5259E+00
   0.360  0.1908E+00  0.5278E+00
   0.370  0.1928E+00  0.5297E+00
   0.380  0.1956E+00  0.5317E+00
   0.390  0.1989E+00  0.5337E+00
   0.400  0.2027E+00  0.5357E+00
   0.410  0.2070E+00  0.5378E+00
   0.420  0.2116E+00  0.5399E+00
   0.430  0.2164E+00  0.5421E+00
   0.440  0.2212E+00  0.5443E+00
   0.450  0.2261E+00  0.5465E+00
   0.460  0.2309E+00  0.5488E+00
   0.470  0.2356E+00  0.5512E+00
   0.480  0.2401E+00  0.5536E+00
   0.490  0.2443E+00  0.5560E+00
   0.500  0.2482E+00  0.5585E+00
   0.510  0.2518E+00  0.5610E+00
   0.520  0.2550E+00  0.5636E+00
   0.530  0.2578E+00  0.5662E+00
   0.540  0.2602E+00  0.5688E+00
   0.550  0.2622E+00  0.5714E+00
   0.560  0.2638E+00  0.5740E+00
   0.570  0.2650E+00  0.5767E+00
   0.580  0.2658E+00  0.5793E+00
   0.590  0.2663E+00  0.5820E+00
   0.600  0.2666E+00  0.5847E+00
   0.610  0.2666E+00  0.5873E+00
   0.620  0.2666E+00  0.5900E+00
   0.630  0.2666E+00  0.5927E+00
   0.640  0.2666E+00  0.5953E+00
   0.650  0.2669E+00  0.5980E+00
   0.660  0.2674E+00  0.6007E+00
   0.670  0.2683E+00  0.6034E+00
   0.680  0.2695E+00  0.6061E+00
   0.690  0.2711E+00  0.6088E+00
   0.700  0.2730E+00  0.6115E+00
   0.710  0.2752E+00  0.6142E+00
   0.720  0.2774E+00  0.6170E+00
   0.730  0.2796E+00  0.6198E+00
   0.740  0.2817E+00  0.6226E+00
   0.750  0.2834E+00  0.6255E+00
   0.760  0.2845E+00  0.6283E+00
   0.770  0.2849E+00  0.6312E+00
   0.780  0.2844E+00  0.6340E+00
   0.790  0.2830E+00  0.6368E+00
   0.800  0.2805E+00  0.6396E+00
   0.810  0.2770E+00  0.6424E+00
   0.820  0.2723E+00  0.6451E+00
   0.830  0.2666E+00  0.6478E+00
   0.840  0.2599E+00  0.6504E+00
   0.850  0.2524E+00  0.6529E+00
   0.860  0.2441E+00  0.6554E+00
   0.870  0.2354E+00  0.6577E+00
   0.880  0.2263E+00  0.6600E+00
   0.890  0.2170E+00  0.6622E+00
   0.900  0.2078E+00  0.6642E+00
   0.910  0.1988E+00  0.6662E+00
   0.920  0.1902E+00  0.6681E+00
   0.930  0.1822E+00  0.6699E+00
   0.940  0.1750E+00  0.6717E+00
   0.950  0.1687E+00  0.6734E+00
   0.960  0.1634E+00  0.6750E+00
   0.970  0.1592E+00  0.6766E+00
   0.980  0.1562E+00  0.6782E+00
   0.990  0.1546E+00  0.6797E+00
   1.000  0.1543E+00  0.6813E+00
   1.010  0.1553E+00  0.6828E+00
   1.020  0.1576E+00  0.6844E+00
   1.030  0.1613E+00  0.6860E+00
   1.040  0.1661E+00  0.6877E+00
   1.050  0.1721E+00  0.6894E+00
   1.060  0.1790E+00  0.6912E+00
   1.070  0.1867E+00  0.6930E+00
   1.080  0.1951E+00  0.6950E+00
   1.090  0.2040E+00  0.6970E+00
   1.100  0.2132E+00  0.6992E+00
   1.110  0.2225E+00  0.7014E+00
   1.120  0.2317E+00  0.7037E+00
   1.130  0.2407E+00  0.7061E+00
   1.140  0.2493E+00  0.7086E+00
   1.150  0.2575E+00  0.7112E+00
   1.160  0.2651E+00  0.7138E+00
   1.170  0.2720E+00  0.7165E+00
   1.180  0.2783E+00  0.7193E+00
   1.190  0.2838E+00  0.7222E+00
   1.200  0.2884E+00  0.7251E+00
   1.210  0.2923E+00  0.7280E+00
   1.220  0.2954E+00  0.7309E+00
   1.230  0.2976E+00  0.7339E+00
   1.240  0.2991E+00  0.7369E+00
   1.250  0.2997E+00  0.7399E+00
   1.260  0.2995E+00  0.7429E+00
   1.270  0.2986E+00  0.7459E+00
   1.280  0.2969E+00  0.7488E+00
   1.290  0.2946E+00  0.7518E+00
   1.300  0.2917E+00  0.7547E+00
   1.310  0.2884E+00  0.7576E+00
   1.320  0.2847E+00  0.7604E+00
   1.330  0.2808E+00  0.7632E+00
   1.340  0.2768E+00  0.7660E+00
   1.350  0.2729E+00  0.7687E+00
   1.360  0.2693E+00  0.7714E+00
   1.370  0.2661E+00  0.7741E+00
   1.380  0.2635E+00  0.7767E+00
   1.390  0.2615E+00  0.7793E+00
   1.400  0.2602E+00  0.7819E+00
   1.410  0.2597E+00  0.7845E+00
   1.420  0.2599E+00  0.7871E+00
   1.430  0.2610E+00  0.7898E+00
   1.440  0.2627E+00  0.7924E+00
   1.450  0.2650E+00  0.7950E+00
   1.460  0.2678E+00  0.7977E+00
   1.470  0.2710E+00  0.8004E+00
   1.480  0.2744E+00  0.8032E+00
   1.490  0.2779E+00  0.8059E+00
   1.500  0.2812E+00  0.8088E+00
   1.510  0.2844E+00  0.8116E+00
   1.520  0.2872E+00  0.8145E+00
   1.530  0.2895E+00  0.8174E+00
   1.540  0.2913E+00  0.8203E+00
   1.550  0.2925E+00  0.8232E+00
   1.560  0.2931E+00  0.8261E+00
   1.570  0.2930E+00  0.8291E+00
   1.580  0.2922E+00  0.8320E+00
   1.590  0.2908E+00  0.8349E+00
   1.600  0.2889E+00  0.8378E+00
   1.610  0.2865E+00  0.8406E+00
   1.620  0.2837E+00  0.8435E+00
   1.630  0.2806E+00  0.8463E+00
   1.640  0.2773E+00  0.8491E+00
   1.650  0.2740E+00  0.8518E+00
   1.660  0.2708E+00  0.8545E+00
   1.670  0.2678E+00  0.8572E+00
   1.680  0.2651E+00  0.8598E+00
   1.690  0.2629E+00  0.8625E+00
   1.700  0.2613E+00  0.8651E+00
   1.710  0.2602E+00  0.8677E+00
   1.720  0.2597E+00  0.8703E+00
   1.730  0.2599E+00  0.8729E+00
   1.740  0.2605E+00  0.8755E+00
   1.750  0.2616E+00  0.8781E+00
   1.760  0.2630E+00  0.8807E+00
   1.770  0.2647E+00  0.8834E+00
   1.780  0.2663E+00  0.8860E+00
   1.790  0.2679E+00  0.8887E+00
   1.800  0.2691E+00  0.8914E+00
   1.810  0.2699E+00  0.8941E+00
   1.820  0.2702E+00  0.8968E+00
   1.830  0.2699E+00  0.8995E+00
   1.840  0.2688E+00  0.9022E+00
   1.850  0.2671E+00  0.9049E+00
   1.860  0.2647E+00  0.9075E+00
   1.870  0.2617E+00  0.9101E+00
   1.880  0.2582E+00  0.9127E+00
   1.890  0.2542E+00  0.9153E+00
   1.900  0.2500E+00  0.9178E+00
   1.910  0.2456E+00  0.9202E+00
   1.920  0.2411E+00  0.9226E+00
   1.930  0.2368E+00  0.9250E+00
   1.940  0.2326E+00  0.9273E+00
   1.950  0.2286E+00  0.9296E+00
   1.960  0.2250E+00  0.9319E+00
   1.970  0.2218E+00  0.9341E+00
   1.980  0.2190E+00  0.9363E+00
   1.990  0.2167E+00  0.9384E+00
   2.000  0.2148E+00  0.9406E+00
   2.010  0.2135E+00  0.9427E+00
   2.020  0.2127E+00  0.9448E+00
   2.030  0.2125E+00  0.9470E+00
   2.040  0.2130E+00  0.9491E+00
   2.050  0.2141E+00  0.9512E+00
   2.060  0.2160E+00  0.9534E+00
   2.070  0.2186E+00  0.9556E+00
   2.080  0.2220E+00  0.9578E+00
   2.090  0.2263E+00  0.9601E+00
   2.100  0.2314E+00  0.9624E+00
   2.110  0.2373E+00  0.9648E+00
   2.120  0.2440E+00  0.9672E+00
   2.130  0.2514E+00  0.9697E+00
   2.140  0.2593E+00  0.9723E+00
   2.150  0.2677E+00  0.9750E+00
   2.160  0.2765E+00  0.9777E+00
   2.170  0.2854E+00  0.9806E+00
   2.180  0.2944E+00  0.9835E+00
   2.190  0.3033E+00  0.9866E+00
   2.200  0.3118E+00  0.9897E+00
   2.210  0.3200E+00  0.9929E+00
   2.220  0.3276E+00  0.9962E+00
   2.230  0.3345E+00  0.9995E+00
   2.240  0.3406E+00  0.1003E+01
   2.250  0.3458E+00  0.1006E+01
   2.260  0.3500E+00  0.1010E+01
   2.270  0.3531E+00  0.1013E+01
   2.280  0.3552E+00  0.1017E+01
   2.290  0.3561E+00  0.1021E+01
   2.300  0.3558E+00  0.1024E+01
   2.310  0.3544E+00  0.1028E+01
   2.320  0.3520E+00  0.1031E+01
   2.330  0.3485E+00  0.1035E+01
   2.340  0.3441E+00  0.1038E+01
   2.350  0.3390E+00  0.1041E+01
   2.360  0.3333E+00  0.1045E+01
   2.370  0.3272E+00  0.1048E+01
   2.380  0.3209E+00  0.1051E+01
   2.390  0.3148E+00  0.1054E+01
   2.400  0.3090E+00  0.1058E+01
   2.410  0.3037E+00  0.1061E+01
   2.420  0.2992E+00  0.1064E+01
   2.430  0.2955E+00  0.1066E+01
   2.440  0.2929E+00  0.1069E+01
   2.450  0.2913E+00  0.1072E+01
   2.460  0.2908E+00  0.1075E+01
   2.470  0.2914E+00  0.1078E+01
   2.480  0.2928E+00  0.1081E+01
   2.490  0.2950E+00  0.1084E+01
   2.500  0.2978E+00  0.1087E+01
   2.510  0.3009E+00  0.1090E+01
   2.520  0.3041E+00  0.1093E+01
   2.530  0.3072E+00  0.1096E+01
   2.540  0.3100E+00  0.1099E+01
   2.550  0.3122E+00  0.1102E+01
   2.560  0.3137E+00  0.1105E+01
   2.570  0.3144E+00  0.1109E+01
   2.580  0.3141E+00  0.1112E+01
   2.590  0.3130E+00  0.1115E+01
   2.600  0.3109E+00  0.1118E+01
   2.610  0.3080E+00  0.1121E+01
   2.620  0.3044E+00  0.1124E+01
   2.630  0.3001E+00  0.1127E+01
   2.640  0.2954E+00  0.1130E+01
   2.650  0.2905E+00  0.1133E+01
   2.660  0.2854E+00  0.1136E+01
   2.670  0.2805E+00  0.1139E+01
   2.680  0.2760E+00  0.1141E+01
   2.690  0.2719E+00  0.1144E+01
   2.700  0.2686E+00  0.1147E+01
   2.710  0.2660E+00  0.1149E+01
   2.720  0.2645E+00  0.1152E+01
   2.730  0.2641E+00  0.1155E+01
   2.740  0.2647E+00  0.1157E+01
   2.750  0.2665E+00  0.1160E+01
   2.760  0.2694E+00  0.1163E+01
   2.770  0.2732E+00  0.1166E+01
   2.780  0.2780E+00  0.1168E+01
   2.790  0.2835E+00  0.1171E+01
   2.800  0.2894E+00  0.1174E+01
   2.810  0.2956E+00  0.1177E+01
   2.820  0.3018E+00  0.1180E+01
   2.830  0.3078E+00  0.1183E+01
   2.840  0.3132E+00  0.1186E+01
   2.850  0.3178E+00  0.1189E+01
   2.860  0.3215E+00  0.1193E+01
   2.870  0.3240E+00  0.1196E+01
   2.880  0.3252E+00  0.1199E+01
   2.890  0.3249E+00  0.1202E+01
   2.900  0.3233E+00  0.1206E+01
   2.910  0.3203E+00  0.1209E+01
   2.920  0.3160E+00  0.1212E+01
   2.930  0.3104E+00  0.1215E+01
   2.940  0.3039E+00  0.1218E+01
   2.950  0.2964E+00  0.1221E+01
   2.960  0.2884E+00  0.1224E+01
   2.970  0.2799E+00  0.1227E+01
   2.980  0.2712E+00  0.1229E+01
   2.990  0.2625E+00  0.1232E+01
   3.000  0.2540E+00  0.1235E+01
   3.010  0.2459E+00  0.1237E+01
   3.020  0.2384E+00  0.1239E+01
   3.030  0.2316E+00  0.1242E+01
   3.040  0.2257E+00  0.1244E+01
   3.050  0.2208E+00  0.1246E+01
   3.060  0.2169E+00  0.1248E+01
   3.070  0.2142E+00  0.1251E+01
   3.080  0.2127E+00  0.1253E+01
   3.090  0.2124E+00  0.1255E+01
   3.100  0.2134E+00  0.1257E+01
   3.110  0.2157E+00  0.1259E+01
   3.120  0.2193E+00  0.1261E+01
   3.130  0.2241E+00  0.1264E+01
   3.140  0.2301E+00  0.1266E+01
   3.150  0.2372E+00  0.1268E+01
   3.160  0.2453E+00  0.1271E+01
   3.170  0.2544E+00  0.1273E+01
   3.180  0.2644E+00  0.1276E+01
   3.190  0.2751E+00  0.1279E+01
   3.200  0.2865E+00  0.1281E+01
   3.210  0.2985E+00  0.1284E+01
   3.220  0.3108E+00  0.1288E+01
   3.230  0.3234E+00  0.1291E+01
   3.240  0.3362E+00  0.1294E+01
   3.250  0.3490E+00  0.1298E+01
   3.260  0.3618E+00  0.1301E+01
   3.270  0.3742E+00  0.1305E+01
   3.280  0.3862E+00  0.1309E+01
   3.290  0.3975E+00  0.1313E+01
   3.300  0.4081E+00  0.1317E+01
   3.310  0.4177E+00  0.1321E+01
   3.320  0.4261E+00  0.1325E+01
   3.330  0.4331E+00  0.1330E+01
   3.340  0.4386E+00  0.1334E+01
   3.350  0.4425E+00  0.1338E+01
   3.360  0.4446E+00  0.1343E+01
   3.370  0.4449E+00  0.1347E+01
   3.380  0.4433E+00  0.1352E+01
   3.390  0.4400E+00  0.1356E+01
   3.400  0.4350E+00  0.1361E+01
   3.410  0.4285E+00  0.1365E+01
   3.420  0.4205E+00  0.1369E+01
   3.430  0.4115E+00  0.1373E+01
   3.440  0.4015E+00  0.1377E+01
   3.450  0.3909E+00  0.1381E+01
   3.460  0.3799E+00  0.1385E+01
   3.470  0.3689E+00  0.1389E+01
   3.480  0.3579E+00  0.1392E+01
   3.490  0.3474E+00  0.1396E+01
   3.500  0.3374E+00  0.1399E+01
   3.510  0.3282E+00  0.1402E+01
   3.520  0.3198E+00  0.1405E+01
   3.530  0.3124E+00  0.1409E+01
   3.540  0.3059E+00  0.1412E+01
   3.550  0.3006E+00  0.1415E+01
   3.560  0.2963E+00  0.1418E+01
   3.570  0.2930E+00  0.1421E+01
   3.580  0.2907E+00  0.1423E+01
   3.590  0.2894E+00  0.1426E+01
   3.600  0.2889E+00  0.1429E+01
   3.610  0.2891E+00  0.1432E+01
   3.620  0.2901E+00  0.1435E+01
   3.630  0.2916E+00  0.1438E+01
   3.640  0.2935E+00  0.1441E+01
   3.650  0.2957E+00  0.1444E+01
   3.660  0.2981E+00  0.1447E+01
   3.670  0.3004E+00  0.1450E+01
   3.680  0.3027E+00  0.1453E+01
   3.690  0.3047E+00  0.1456E+01
   3.700  0.3063E+00  0.1459E+01
   3.710  0.3076E+00  0.1462E+01
   3.720  0.3083E+00  0.1465E+01
   3.730  0.3086E+00  0.1468E+01
   3.740  0.3084E+00  0.1471E+01
   3.750  0.3078E+00  0.1474E+01
   3.760  0.3069E+00  0.1477E+01
   3.770  0.3057E+00  0.1481E+01
   3.780  0.3043E+00  0.1484E+01
   3.790  0.3029E+00  0.1487E+01
   3.800  0.3016E+00  0.1490E+01
   3.810  0.3004E+00  0.1493E+01
   3.820  0.2995E+00  0.1496E+01
   3.830  0.2989E+00  0.1499E+01
   3.840  0.2986E+00  0.1502E+01
   3.850  0.2987E+00  0.1505E+01
   3.860  0.2991E+00  0.1508E+01
   3.870  0.2997E+00  0.1511E+01
   3.880  0.3004E+00  0.1514E+01
   3.890  0.3013E+00  0.1517E+01
   3.900  0.3021E+00  0.1520E+01
   3.910  0.3028E+00  0.1523E+01
   3.920  0.3034E+00  0.1526E+01
   3.930  0.3036E+00  0.1529E+01
   3.940  0.3036E+00  0.1532E+01
   3.950  0.3032E+00  0.1535E+01
   3.960  0.3024E+00  0.1538E+01
   3.970  0.3013E+00  0.1541E+01
   3.980  0.2998E+00  0.1544E+01
   3.990  0.2981E+00  0.1547E+01
   4.000  0.2961E+00  0.1550E+01
   4.010  0.2941E+00  0.1553E+01
   4.020  0.2920E+00  0.1556E+01
   4.030  0.2900E+00  0.1558E+01
   4.040  0.2882E+00  0.1561E+01
   4.050  0.2868E+00  0.1564E+01
   4.060  0.2857E+00  0.1567E+01
   4.070  0.2853E+00  0.1570E+01
   4.080  0.2854E+00  0.1573E+01
   4.090  0.2864E+00  0.1576E+01
   4.100  0.2881E+00  0.1579E+01
   4.110  0.2907E+00  0.1581E+01
   4.120  0.2943E+00  0.1584E+01
   4.130  0.2988E+00  0.1587E+01
   4.140  0.3041E+00  0.1590E+01
   4.150  0.3103E+00  0.1594E+01
   4.160  0.3173E+00  0.1597E+01
   4.170  0.3248E+00  0.1600E+01
   4.180  0.3329E+00  0.1603E+01
   4.190  0.3412E+00  0.1607E+01
   4.200  0.3497E+00  0.1610E+01
   4.210  0.3581E+00  0.1614E+01
   4.220  0.3662E+00  0.1617E+01
   4.230  0.3738E+00  0.1621E+01
   4.240  0.3808E+00  0.1625E+01
   4.250  0.3870E+00  0.1629E+01
   4.260  0.3923E+00  0.1633E+01
   4.270  0.3966E+00  0.1637E+01
   4.280  0.3998E+00  0.1641E+01
   4.290  0.4019E+00  0.1645E+01
   4.300  0.4029E+00  0.1649E+01
   4.310  0.4027E+00  0.1653E+01
   4.320  0.4015E+00  0.1657E+01
   4.330  0.3993E+00  0.1661E+01
   4.340  0.3962E+00  0.1665E+01
   4.350  0.3923E+00  0.1669E+01
   4.360  0.3877E+00  0.1673E+01
   4.370  0.3825E+00  0.1676E+01
   4.380  0.3768E+00  0.1680E+01
   4.390  0.3707E+00  0.1684E+01
   4.400  0.3644E+00  0.1688E+01
   4.410  0.3581E+00  0.1691E+01
   4.420  0.3518E+00  0.1695E+01
   4.430  0.3458E+00  0.1698E+01
   4.440  0.3401E+00  0.1701E+01
   4.450  0.3350E+00  0.1705E+01
   4.460  0.3305E+00  0.1708E+01
   4.470  0.3268E+00  0.1711E+01
   4.480  0.3241E+00  0.1715E+01
   4.490  0.3224E+00  0.1718E+01
   4.500  0.3218E+00  0.1721E+01
   4.510  0.3223E+00  0.1724E+01
   4.520  0.3240E+00  0.1728E+01
   4.530  0.3268E+00  0.1731E+01
   4.540  0.3308E+00  0.1734E+01
   4.550  0.3358E+00  0.1737E+01
   4.560  0.3417E+00  0.1741E+01
   4.570  0.3485E+00  0.1744E+01
   4.580  0.3560E+00  0.1748E+01
   4.590  0.3639E+00  0.1752E+01
   4.600  0.3723E+00  0.1755E+01
   4.610  0.3809E+00  0.1759E+01
   4.620  0.3895E+00  0.1763E+01
   4.630  0.3980E+00  0.1767E+01
   4.640  0.4062E+00  0.1771E+01
   4.650  0.4139E+00  0.1775E+01
   4.660  0.4209E+00  0.1779E+01
   4.670  0.4271E+00  0.1784E+01
   4.680  0.4323E+00  0.1788E+01
   4.690  0.4363E+00  0.1792E+01
   4.700  0.4392E+00  0.1797E+01
   4.710  0.4407E+00  0.1801E+01
   4.720  0.4407E+00  0.1806E+01
   4.730  0.4394E+00  0.1810E+01
   4.740  0.4366E+00  0.1814E+01
   4.750  0.4323E+00  0.1819E+01
   4.760  0.4268E+00  0.1823E+01
   4.770  0.4202E+00  0.1827E+01
   4.780  0.4125E+00  0.1831E+01
   4.790  0.4042E+00  0.1835E+01
   4.800  0.3953E+00  0.1839E+01
   4.810  0.3862E+00  0.1843E+01
   4.820  0.3771E+00  0.1847E+01
   4.830  0.3684E+00  0.1851E+01
   4.840  0.3602E+00  0.1854E+01
   4.850  0.3529E+00  0.1858E+01
   4.860  0.3466E+00  0.1861E+01
   4.870  0.3414E+00  0.1865E+01
   4.880  0.3374E+00  0.1868E+01
   4.890  0.3346E+00  0.1871E+01
   4.900  0.3330E+00  0.1875E+01
   4.910  0.3325E+00  0.1878E+01
   4.920  0.3330E+00  0.1881E+01
   4.930  0.3342E+00  0.1885E+01
   4.940  0.3361E+00  0.1888E+01
   4.950  0.3383E+00  0.1891E+01
   4.960  0.3406E+00  0.1895E+01
   4.970  0.3428E+00  0.1898E+01
   4.980  0.3448E+00  0.1902E+01
   4.990  0.3464E+00  0.1905E+01
   5.000  0.3473E+00  0.1909E+01
   5.010  0.3475E+00  0.1912E+01
   5.020  0.3469E+00  0.1916E+01
   5.030  0.3455E+00  0.1919E+01
   5.040  0.3433E+00  0.1922E+01
   5.050  0.3403E+00  0.1926E+01
   5.060  0.3366E+00  0.1929E+01
   5.070  0.3323E+00  0.1932E+01
   5.080  0.3275E+00  0.1936E+01
   5.090  0.3224E+00  0.1939E+01
   5.100  0.3172E+00  0.1942E+01
   5.110  0.3121E+00  0.1945E+01
   5.120  0.3072E+00  0.1948E+01
   5.130  0.3029E+00  0.1951E+01
   5.140  0.2993E+00  0.1954E+01
   5.150  0.2966E+00  0.1957E+01
   5.160  0.2950E+00  0.1960E+01
   5.170  0.2947E+00  0.1963E+01
   5.180  0.2957E+00  0.1966E+01
   5.190  0.2982E+00  0.1969E+01
   5.200  0.3022E+00  0.1972E+01
   5.210  0.3076E+00  0.1975E+01
   5.220  0.3143E+00  0.1978E+01
   5.230  0.3223E+00  0.1982E+01
   5.240  0.3314E+00  0.1985E+01
   5.250  0.3413E+00  0.1988E+01
   5.260  0.3519E+00  0.1992E+01
   5.270  0.3629E+00  0.1996E+01
   5.280  0.3739E+00  0.1999E+01
   5.290  0.3849E+00  0.2003E+01
   5.300  0.3955E+00  0.2007E+01
   5.310  0.4055E+00  0.2011E+01
   5.320  0.4147E+00  0.2015E+01
   5.330  0.4230E+00  0.2019E+01
   5.340  0.4303E+00  0.2024E+01
   5.350  0.4364E+00  0.2028E+01
   5.360  0.4414E+00  0.2033E+01
   5.370  0.4451E+00  0.2037E+01
   5.380  0.4476E+00  0.2042E+01
   5.390  0.4488E+00  0.2046E+01
   5.400  0.4489E+00  0.2050E+01
   5.410  0.4478E+00  0.2055E+01
   5.420  0.4457E+00  0.2059E+01
   5.430  0.4424E+00  0.2064E+01
   5.440  0.4383E+00  0.2068E+01
   5.450  0.4333E+00  0.2073E+01
   5.460  0.4275E+00  0.2077E+01
   5.470  0.4212E+00  0.2081E+01
   5.480  0.4144E+00  0.2085E+01
   5.490  0.4073E+00  0.2089E+01
   5.500  0.4002E+00  0.2093E+01
   5.510  0.3931E+00  0.2097E+01
   5.520  0.3863E+00  0.2101E+01
   5.530  0.3799E+00  0.2105E+01
   5.540  0.3741E+00  0.2109E+01
   5.550  0.3690E+00  0.2112E+01
   5.560  0.3649E+00  0.2116E+01
   5.570  0.3616E+00  0.2120E+01
   5.580  0.3592E+00  0.2123E+01
   5.590  0.3579E+00  0.2127E+01
   5.600  0.3574E+00  0.2130E+01
   5.610  0.3577E+00  0.2134E+01
   5.620  0.3587E+00  0.2137E+01
   5.630  0.3602E+00  0.2141E+01
   5.640  0.3622E+00  0.2145E+01
   5.650  0.3643E+00  0.2148E+01
   5.660  0.3665E+00  0.2152E+01
   5.670  0.3686E+00  0.2156E+01
   5.680  0.3705E+00  0.2159E+01
   5.690  0.3719E+00  0.2163E+01
   5.700  0.3728E+00  0.2167E+01
   5.710  0.3732E+00  0.2171E+01
   5.720  0.3730E+00  0.2174E+01
   5.730  0.3721E+00  0.2178E+01
   5.740  0.3707E+00  0.2182E+01
   5.750  0.3687E+00  0.2185E+01
   5.760  0.3663E+00  0.2189E+01
   5.770  0.3636E+00  0.2193E+01
   5.780  0.3608E+00  0.2196E+01
   5.790  0.3580E+00  0.2200E+01
   5.800  0.3555E+00  0.2203E+01
   5.810  0.3534E+00  0.2207E+01
   5.820  0.3520E+00  0.2211E+01
   5.830  0.3513E+00  0.2214E+01
   5.840  0.3517E+00  0.2218E+01
   5.850  0.3531E+00  0.2221E+01
   5.860  0.3556E+00  0.2225E+01
   5.870  0.3593E+00  0.2228E+01
   5.880  0.3641E+00  0.2232E+01
   5.890  0.3698E+00  0.2236E+01
   5.900  0.3763E+00  0.2239E+01
   5.910  0.3833E+00  0.2243E+01
   5.920  0.3906E+00  0.2247E+01
   5.930  0.3977E+00  0.2251E+01
   5.940  0.4044E+00  0.2255E+01
   5.950  0.4103E+00  0.2259E+01
   5.960  0.4152E+00  0.2263E+01
   5.970  0.4187E+00  0.2268E+01
   5.980  0.4206E+00  0.2272E+01
   5.990  0.4208E+00  0.2276E+01
   6.000  0.4192E+00  0.2280E+01
   6.010  0.4158E+00  0.2284E+01
   6.020  0.4106E+00  0.2288E+01
   6.030  0.4038E+00  0.2292E+01
   6.040  0.3957E+00  0.2296E+01
   6.050  0.3865E+00  0.2300E+01
   6.060  0.3765E+00  0.2304E+01
   6.070  0.3660E+00  0.2308E+01
   6.080  0.3553E+00  0.2311E+01
   6.090  0.3447E+00  0.2315E+01
   6.100  0.3345E+00  0.2318E+01
   6.110  0.3250E+00  0.2321E+01
   6.120  0.3163E+00  0.2324E+01
   6.130  0.3086E+00  0.2328E+01
   6.140  0.3021E+00  0.2331E+01
   6.150  0.2967E+00  0.2334E+01
   6.160  0.2926E+00  0.2336E+01
   6.170  0.2897E+00  0.2339E+01
   6.180  0.2879E+00  0.2342E+01
   6.190  0.2873E+00  0.2345E+01
   6.200  0.2878E+00  0.2348E+01
   6.210  0.2893E+00  0.2351E+01
   6.220  0.2916E+00  0.2354E+01
   6.230  0.2946E+00  0.2357E+01
   6.240  0.2983E+00  0.2360E+01
   6.250  0.3025E+00  0.2363E+01
   6.260  0.3071E+00  0.2366E+01
   6.270  0.3118E+00  0.2369E+01
   6.280  0.3167E+00  0.2372E+01
   6.290  0.3215E+00  0.2375E+01
   6.300  0.3260E+00  0.2379E+01
   6.310  0.3303E+00  0.2382E+01
   6.320  0.3342E+00  0.2385E+01
   6.330  0.3375E+00  0.2389E+01
   6.340  0.3402E+00  0.2392E+01
   6.350  0.3422E+00  0.2395E+01
   6.360  0.3436E+00  0.2399E+01
   6.370  0.3442E+00  0.2402E+01
   6.380  0.3441E+00  0.2406E+01
   6.390  0.3434E+00  0.2409E+01
   6.400  0.3419E+00  0.2413E+01
   6.410  0.3399E+00  0.2416E+01
   6.420  0.3372E+00  0.2419E+01
   6.430  0.3341E+00  0.2423E+01
   6.440  0.3306E+00  0.2426E+01
   6.450  0.3268E+00  0.2429E+01
   6.460  0.3227E+00  0.2432E+01
   6.470  0.3185E+00  0.2436E+01
   6.480  0.3142E+00  0.2439E+01
   6.490  0.3100E+00  0.2442E+01
   6.500  0.3059E+00  0.2445E+01
   6.510  0.3021E+00  0.2448E+01
   6.520  0.2988E+00  0.2451E+01
   6.530  0.2959E+00  0.2454E+01
   6.540  0.2937E+00  0.2457E+01
   6.550  0.2922E+00  0.2460E+01
   6.560  0.2915E+00  0.2463E+01
   6.570  0.2918E+00  0.2466E+01
   6.580  0.2931E+00  0.2469E+01
   6.590  0.2956E+00  0.2472E+01
   6.600  0.2991E+00  0.2475E+01
   6.610  0.3039E+00  0.2478E+01
   6.620  0.3098E+00  0.2481E+01
   6.630  0.3169E+00  0.2484E+01
   6.640  0.3252E+00  0.2487E+01
   6.650  0.3346E+00  0.2490E+01
   6.660  0.3450E+00  0.2494E+01
   6.670  0.3562E+00  0.2497E+01
   6.680  0.3681E+00  0.2501E+01
   6.690  0.3806E+00  0.2505E+01
   6.700  0.3934E+00  0.2509E+01
   6.710  0.4063E+00  0.2513E+01
   6.720  0.4189E+00  0.2517E+01
   6.730  0.4311E+00  0.2521E+01
   6.740  0.4425E+00  0.2526E+01
   6.750  0.4530E+00  0.2530E+01
   6.760  0.4622E+00  0.2535E+01
   6.770  0.4699E+00  0.2540E+01
   6.780  0.4761E+00  0.2544E+01
   6.790  0.4806E+00  0.2549E+01
   6.800  0.4834E+00  0.2554E+01
   6.810  0.4844E+00  0.2559E+01
   6.820  0.4839E+00  0.2564E+01
   6.830  0.4819E+00  0.2569E+01
   6.840  0.4788E+00  0.2573E+01
   6.850  0.4746E+00  0.2578E+01
   6.860  0.4696E+00  0.2583E+01
   6.870  0.4642E+00  0.2587E+01
   6.880  0.4587E+00  0.2592E+01
   6.890  0.4531E+00  0.2597E+01
   6.900  0.4478E+00  0.2601E+01
   6.910  0.4428E+00  0.2605E+01
   6.920  0.4384E+00  0.2610E+01
   6.930  0.4344E+00  0.2614E+01
   6.940  0.4311E+00  0.2619E+01
   6.950  0.4282E+00  0.2623E+01
   6.960  0.4258E+00  0.2627E+01
   6.970  0.4237E+00  0.2631E+01
   6.980  0.4218E+00  0.2636E+01
   6.990  0.4200E+00  0.2640E+01
   7.000  0.4182E+00  0.2644E+01
   7.010  0.4163E+00  0.2648E+01
   7.020  0.4143E+00  0.2652E+01
   7.030  0.4120E+00  0.2656E+01
   7.040  0.4094E+00  0.2660E+01
   7.050  0.4066E+00  0.2664E+01
   7.060  0.4036E+00  0.2669E+01
   7.070  0.4003E+00  0.2673E+01
   7.080  0.3969E+00  0.2676E+01
   7.090  0.3934E+00  0.2680E+01
   7.100  0.3899E+00  0.2684E+01
   7.110  0.3864E+00  0.2688E+01
   7.120  0.3831E+00  0.2692E+01
   7.130  0.3799E+00  0.2696E+01
   7.140  0.3771E+00  0.2700E+01
   7.150  0.3747E+00  0.2703E+01
   7.160  0.3728E+00  0.2707E+01
   7.170  0.3715E+00  0.2711E+01
   7.180  0.3710E+00  0.2714E+01
   7.190  0.3712E+00  0.2718E+01
   7.200  0.3724E+00  0.2722E+01
   7.210  0.3746E+00  0.2726E+01
   7.220  0.3777E+00  0.2729E+01
   7.230  0.3818E+00  0.2733E+01
   7.240  0.3868E+00  0.2737E+01
   7.250  0.3927E+00  0.2741E+01
   7.260  0.3993E+00  0.2745E+01
   7.270  0.4063E+00  0.2749E+01
   7.280  0.4136E+00  0.2753E+01
   7.290  0.4209E+00  0.2757E+01
   7.300  0.4279E+00  0.2762E+01
   7.310  0.4344E+00  0.2766E+01
   7.320  0.4399E+00  0.2770E+01
   7.330  0.4443E+00  0.2775E+01
   7.340  0.4473E+00  0.2779E+01
   7.350  0.4487E+00  0.2784E+01
   7.360  0.4484E+00  0.2788E+01
   7.370  0.4463E+00  0.2793E+01
   7.380  0.4423E+00  0.2797E+01
   7.390  0.4365E+00  0.2802E+01
   7.400  0.4290E+00  0.2806E+01
   7.410  0.4198E+00  0.2810E+01
   7.420  0.4093E+00  0.2814E+01
   7.430  0.3977E+00  0.2818E+01
   7.440  0.3852E+00  0.2822E+01
   7.450  0.3721E+00  0.2826E+01
   7.460  0.3587E+00  0.2829E+01
   7.470  0.3454E+00  0.2833E+01
   7.480  0.3324E+00  0.2836E+01
   7.490  0.3201E+00  0.2839E+01
   7.500  0.3087E+00  0.2842E+01
   7.510  0.2985E+00  0.2845E+01
   7.520  0.2896E+00  0.2848E+01
   7.530  0.2823E+00  0.2851E+01
   7.540  0.2766E+00  0.2854E+01
   7.550  0.2728E+00  0.2857E+01
   7.560  0.2707E+00  0.2859E+01
   7.570  0.2704E+00  0.2862E+01
   7.580  0.2718E+00  0.2865E+01
   7.590  0.2748E+00  0.2867E+01
   7.600  0.2793E+00  0.2870E+01
   7.610  0.2849E+00  0.2873E+01
   7.620  0.2916E+00  0.2876E+01
   7.630  0.2990E+00  0.2879E+01
   7.640  0.3068E+00  0.2882E+01
   7.650  0.3147E+00  0.2885E+01
   7.660  0.3226E+00  0.2888E+01
   7.670  0.3301E+00  0.2892E+01
   7.680  0.3369E+00  0.2895E+01
   7.690  0.3429E+00  0.2899E+01
   7.700  0.3480E+00  0.2902E+01
   7.710  0.3520E+00  0.2906E+01
   7.720  0.3548E+00  0.2909E+01
   7.730  0.3565E+00  0.2913E+01
   7.740  0.3571E+00  0.2916E+01
   7.750  0.3567E+00  0.2920E+01
   7.760  0.3554E+00  0.2923E+01
   7.770  0.3534E+00  0.2927E+01
   7.780  0.3508E+00  0.2930E+01
   7.790  0.3480E+00  0.2934E+01
   7.800  0.3451E+00  0.2937E+01
   7.810  0.3423E+00  0.2941E+01
   7.820  0.3400E+00  0.2944E+01
   7.830  0.3382E+00  0.2948E+01
   7.840  0.3373E+00  0.2951E+01
   7.850  0.3373E+00  0.2954E+01
   7.860  0.3386E+00  0.2958E+01
   7.870  0.3411E+00  0.2961E+01
   7.880  0.3450E+00  0.2965E+01
   7.890  0.3504E+00  0.2968E+01
   7.900  0.3573E+00  0.2972E+01
   7.910  0.3656E+00  0.2975E+01
   7.920  0.3752E+00  0.2979E+01
   7.930  0.3862E+00  0.2983E+01
   7.940  0.3982E+00  0.2987E+01
   7.950  0.4112E+00  0.2991E+01
   7.960  0.4248E+00  0.2995E+01
   7.970  0.4387E+00  0.3000E+01
   7.980  0.4527E+00  0.3004E+01
   7.990  0.4665E+00  0.3009E+01
   8.000  0.4796E+00  0.3014E+01
   8.010  0.4918E+00  0.3019E+01
   8.020  0.5028E+00  0.3024E+01
   8.030  0.5122E+00  0.3029E+01
   8.040  0.5199E+00  0.3034E+01
   8.050  0.5256E+00  0.3039E+01
   8.060  0.5291E+00  0.3044E+01
   8.070  0.5305E+00  0.3050E+01
   8.080  0.5297E+00  0.3055E+01
   8.090  0.5267E+00  0.3060E+01
   8.100  0.5218E+00  0.3066E+01
   8.110  0.5150E+00  0.3071E+01
   8.120  0.5068E+00  0.3076E+01
   8.130  0.4973E+00  0.3081E+01
   8.140  0.4869E+00  0.3086E+01
   8.150  0.4760E+00  0.3090E+01
   8.160  0.4650E+00  0.3095E+01
   8.170  0.4543E+00  0.3100E+01
   8.180  0.4442E+00  0.3104E+01
   8.190  0.4350E+00  0.3108E+01
   8.200  0.4270E+00  0.3113E+01
   8.210  0.4205E+00  0.3117E+01
   8.220  0.4155E+00  0.3121E+01
   8.230  0.4123E+00  0.3125E+01
   8.240  0.4108E+00  0.3129E+01
   8.250  0.4109E+00  0.3133E+01
   8.260  0.4127E+00  0.3137E+01
   8.270  0.4159E+00  0.3142E+01
   8.280  0.4203E+00  0.3146E+01
   8.290  0.4257E+00  0.3150E+01
   8.300  0.4319E+00  0.3154E+01
   8.310  0.4386E+00  0.3159E+01
   8.320  0.4456E+00  0.3163E+01
   8.330  0.4525E+00  0.3168E+01
   8.340  0.4592E+00  0.3172E+01
   8.350  0.4654E+00  0.3177E+01
   8.360  0.4710E+00  0.3182E+01
   8.370  0.4758E+00  0.3186E+01
   8.380  0.4796E+00  0.3191E+01
   8.390  0.4825E+00  0.3196E+01
   8.400  0.4843E+00  0.3201E+01
   8.410  0.4850E+00  0.3206E+01
   8.420  0.4846E+00  0.3211E+01
   8.430  0.4831E+00  0.3215E+01
   8.440  0.4805E+00  0.3220E+01
   8.450  0.4769E+00  0.3225E+01
   8.460  0.4724E+00  0.3230E+01
   8.470  0.4669E+00  0.3234E+01
   8.480  0.4606E+00  0.3239E+01
   8.490  0.4536E+00  0.3244E+01
   8.500  0.4461E+00  0.3248E+01
   8.510  0.4381E+00  0.3252E+01
   8.520  0.4299E+00  0.3257E+01
   8.530  0.4217E+00  0.3261E+01
   8.540  0.4135E+00  0.3265E+01
   8.550  0.4057E+00  0.3269E+01
   8.560  0.3984E+00  0.3273E+01
   8.570  0.3918E+00  0.3277E+01
   8.580  0.3861E+00  0.3281E+01
   8.590  0.3815E+00  0.3285E+01
   8.600  0.3782E+00  0.3288E+01
   8.610  0.3761E+00  0.3292E+01
   8.620  0.3754E+00  0.3296E+01
   8.630  0.3760E+00  0.3300E+01
   8.640  0.3780E+00  0.3304E+01
   8.650  0.3812E+00  0.3307E+01
   8.660  0.3854E+00  0.3311E+01
   8.670  0.3904E+00  0.3315E+01
   8.680  0.3961E+00  0.3319E+01
   8.690  0.4021E+00  0.3323E+01
   8.700  0.4082E+00  0.3327E+01
   8.710  0.4140E+00  0.3331E+01
   8.720  0.4193E+00  0.3335E+01
   8.730  0.4238E+00  0.3340E+01
   8.740  0.4273E+00  0.3344E+01
   8.750  0.4296E+00  0.3348E+01
   8.760  0.4304E+00  0.3353E+01
   8.770  0.4298E+00  0.3357E+01
   8.780  0.4277E+00  0.3361E+01
   8.790  0.4240E+00  0.3365E+01
   8.800  0.4189E+00  0.3370E+01
   8.810  0.4126E+00  0.3374E+01
   8.820  0.4051E+00  0.3378E+01
   8.830  0.3967E+00  0.3382E+01
   8.840  0.3878E+00  0.3386E+01
   8.850  0.3786E+00  0.3389E+01
   8.860  0.3693E+00  0.3393E+01
   8.870  0.3604E+00  0.3397E+01
   8.880  0.3521E+00  0.3400E+01
   8.890  0.3447E+00  0.3404E+01
   8.900  0.3385E+00  0.3407E+01
   8.910  0.3335E+00  0.3410E+01
   8.920  0.3300E+00  0.3414E+01
   8.930  0.3280E+00  0.3417E+01
   8.940  0.3275E+00  0.3420E+01
   8.950  0.3284E+00  0.3424E+01
   8.960  0.3307E+00  0.3427E+01
   8.970  0.3341E+00  0.3430E+01
   8.980  0.3385E+00  0.3434E+01
   8.990  0.3436E+00  0.3437E+01
   9.000  0.3491E+00  0.3440E+01
   9.010  0.3548E+00  0.3444E+01
   9.020  0.3604E+00  0.3448E+01
   9.030  0.3657E+00  0.3451E+01
   9.040  0.3704E+00  0.3455E+01
   9.050  0.3744E+00  0.3459E+01
   9.060  0.3776E+00  0.3463E+01
   9.070  0.3799E+00  0.3466E+01
   9.080  0.3813E+00  0.3470E+01
   9.090  0.3818E+00  0.3474E+01
   9.100  0.3816E+00  0.3478E+01
   9.110  0.3807E+00  0.3482E+01
   9.120  0.3794E+00  0.3485E+01
   9.130  0.3778E+00  0.3489E+01
   9.140  0.3762E+00  0.3493E+01
   9.150  0.3747E+00  0.3497E+01
   9.160  0.3737E+00  0.3500E+01
   9.170  0.3733E+00  0.3504E+01
   9.180  0.3737E+00  0.3508E+01
   9.190  0.3751E+00  0.3512E+01
   9.200  0.3776E+00  0.3515E+01
   9.210  0.3813E+00  0.3519E+01
   9.220  0.3862E+00  0.3523E+01
   9.230  0.3923E+00  0.3527E+01
   9.240  0.3995E+00  0.3531E+01
   9.250  0.4076E+00  0.3535E+01
   9.260  0.4166E+00  0.3539E+01
   9.270  0.4260E+00  0.3543E+01
   9.280  0.4358E+00  0.3548E+01
   9.290  0.4456E+00  0.3552E+01
   9.300  0.4552E+00  0.3557E+01
   9.310  0.4643E+00  0.3561E+01
   9.320  0.4726E+00  0.3566E+01
   9.330  0.4801E+00  0.3571E+01
   9.340  0.4864E+00  0.3576E+01
   9.350  0.4917E+00  0.3581E+01
   9.360  0.4958E+00  0.3586E+01
   9.370  0.4987E+00  0.3591E+01
   9.380  0.5006E+00  0.3596E+01
   9.390  0.5017E+00  0.3601E+01
   9.400  0.5020E+00  0.3606E+01
   9.410  0.5019E+00  0.3611E+01
   9.420  0.5015E+00  0.3616E+01
   9.430  0.5011E+00  0.3621E+01
   9.440  0.5008E+00  0.3626E+01
   9.450  0.5008E+00  0.3631E+01
   9.460  0.5014E+00  0.3636E+01
   9.470  0.5024E+00  0.3641E+01
   9.480  0.5041E+00  0.3646E+01
   9.490  0.5063E+00  0.3651E+01
   9.500  0.5090E+00  0.3656E+01
   9.510  0.5120E+00  0.3661E+01
   9.520  0.5153E+00  0.3666E+01
   9.530  0.5186E+00  0.3672E+01
   9.540  0.5219E+00  0.3677E+01
   9.550  0.5248E+00  0.3682E+01
   9.560  0.5274E+00  0.3687E+01
   9.570  0.5294E+00  0.3693E+01
   9.580  0.5307E+00  0.3698E+01
   9.590  0.5314E+00  0.3703E+01
   9.600  0.5313E+00  0.3709E+01
   9.610  0.5306E+00  0.3714E+01
   9.620  0.5292E+00  0.3719E+01
   9.630  0.5273E+00  0.3724E+01
   9.640  0.5249E+00  0.3730E+01
   9.650  0.5222E+00  0.3735E+01
   9.660  0.5193E+00  0.3740E+01
   9.670  0.5162E+00  0.3745E+01
   9.680  0.5130E+00  0.3750E+01
   9.690  0.5099E+00  0.3755E+01
   9.700  0.5068E+00  0.3760E+01
   9.710  0.5037E+00  0.3766E+01
   9.720  0.5006E+00  0.3771E+01
   9.730  0.4975E+00  0.3776E+01
   9.740  0.4942E+00  0.3780E+01
   9.750  0.4908E+00  0.3785E+01
   9.760  0.4870E+00  0.3790E+01
   9.770  0.4829E+00  0.3795E+01
   9.780  0.4783E+00  0.3800E+01
   9.790  0.4731E+00  0.3805E+01
   9.800  0.4674E+00  0.3809E+01
   9.810  0.4610E+00  0.3814E+01
   9.820  0.4542E+00  0.3818E+01
   9.830  0.4468E+00  0.3823E+01
   9.840  0.4390E+00  0.3827E+01
   9.850  0.4309E+00  0.3832E+01
   9.860  0.4226E+00  0.3836E+01
   9.870  0.4144E+00  0.3840E+01
   9.880  0.4064E+00  0.3844E+01
   9.890  0.3988E+00  0.3848E+01
   9.900  0.3918E+00  0.3852E+01
   9.910  0.3855E+00  0.3856E+01
   9.920  0.3800E+00  0.3860E+01
   9.930  0.3755E+00  0.3863E+01
   9.940  0.3720E+00  0.3867E+01
   9.950  0.3695E+00  0.3871E+01
   9.960  0.3681E+00  0.3874E+01
   9.970  0.3677E+00  0.3878E+01
   9.980  0.3681E+00  0.3882E+01
   9.990  0.3693E+00  0.3885E+01
  10.000  0.3710E+00  0.3889E+01
  10.010  0.3732E+00  0.3893E+01
  10.020  0.3755E+00  0.3897E+01
  10.030  0.3778E+00  0.3900E+01
  10.040  0.3799E+00  0.3904E+01
  10.050  0.3817E+00  0.3908E+01
  10.060  0.3830E+00  0.3912E+01
  10.070  0.3837E+00  0.3916E+01
  10.080  0.3837E+00  0.3920E+01
  10.090  0.3830E+00  0.3923E+01
  10.100  0.3817E+00  0.3927E+01
  10.110  0.3797E+00  0.3931E+01
  10.120  0.3772E+00  0.3935E+01
  10.130  0.3743E+00  0.3939E+01
  10.140  0.3712E+00  0.3942E+01
  10.150  0.3679E+00  0.3946E+01
  10.160  0.3648E+00  0.3950E+01
  10.170  0.3619E+00  0.3953E+01
  10.180  0.3595E+00  0.3957E+01
  10.190  0.3577E+00  0.3960E+01
  10.200  0.3567E+00  0.3964E+01
  10.210  0.3567E+00  0.3967E+01
  10.220  0.3576E+00  0.3971E+01
  10.230  0.3596E+00  0.3975E+01
  10.240  0.3627E+00  0.3978E+01
  10.250  0.3669E+00  0.3982E+01
  10.260  0.3720E+00  0.3986E+01
  10.270  0.3781E+00  0.3989E+01
  10.280  0.3850E+00  0.3993E+01
  10.290  0.3924E+00  0.3997E+01
  10.300  0.4003E+00  0.4001E+01
  10.310  0.4084E+00  0.4005E+01
  10.320  0.4165E+00  0.4009E+01
  10.330  0.4244E+00  0.4014E+01
  10.340  0.4319E+00  0.4018E+01
  10.350  0.4389E+00  0.4022E+01
  10.360  0.4452E+00  0.4027E+01
  10.370  0.4507E+00  0.4031E+01
  10.380  0.4553E+00  0.4036E+01
  10.390  0.4590E+00  0.4041E+01
  10.400  0.4618E+00  0.4045E+01
  10.410  0.4636E+00  0.4050E+01
  10.420  0.4647E+00  0.4054E+01
  10.430  0.4650E+00  0.4059E+01
  10.440  0.4648E+00  0.4064E+01
  10.450  0.4641E+00  0.4068E+01
  10.460  0.4631E+00  0.4073E+01
  10.470  0.4621E+00  0.4078E+01
  10.480  0.4612E+00  0.4082E+01
  10.490  0.4607E+00  0.4087E+01
  10.500  0.4606E+00  0.4091E+01
  10.510  0.4613E+00  0.4096E+01
  10.520  0.4629E+00  0.4101E+01
  10.530  0.4654E+00  0.4105E+01
  10.540  0.4692E+00  0.4110E+01
  10.550  0.4741E+00  0.4115E+01
  10.560  0.4803E+00  0.4120E+01
  10.570  0.4877E+00  0.4124E+01
  10.580  0.4963E+00  0.4129E+01
  10.590  0.5059E+00  0.4134E+01
  10.600  0.5164E+00  0.4140E+01
  10.610  0.5275E+00  0.4145E+01
  10.620  0.5389E+00  0.4150E+01
  10.630  0.5503E+00  0.4156E+01
  10.640  0.5615E+00  0.4161E+01
  10.650  0.5720E+00  0.4167E+01
  10.660  0.5817E+00  0.4173E+01
  10.670  0.5900E+00  0.4179E+01
  10.680  0.5969E+00  0.4185E+01
  10.690  0.6020E+00  0.4191E+01
  10.700  0.6052E+00  0.4197E+01
  10.710  0.6064E+00  0.4203E+01
  10.720  0.6055E+00  0.4209E+01
  10.730  0.6025E+00  0.4215E+01
  10.740  0.5974E+00  0.4221E+01
  10.750  0.5904E+00  0.4227E+01
  10.760  0.5816E+00  0.4233E+01
  10.770  0.5713E+00  0.4238E+01
  10.780  0.5595E+00  0.4244E+01
  10.790  0.5466E+00  0.4250E+01
  10.800  0.5329E+00  0.4255E+01
  10.810  0.5187E+00  0.4260E+01
  10.820  0.5042E+00  0.4265E+01
  10.830  0.4898E+00  0.4270E+01
  10.840  0.4758E+00  0.4275E+01
  10.850  0.4624E+00  0.4279E+01
  10.860  0.4501E+00  0.4284E+01
  10.870  0.4389E+00  0.4288E+01
  10.880  0.4292E+00  0.4293E+01
  10.890  0.4212E+00  0.4297E+01
  10.900  0.4151E+00  0.4301E+01
  10.910  0.4108E+00  0.4305E+01
  10.920  0.4086E+00  0.4309E+01
  10.930  0.4083E+00  0.4313E+01
  10.940  0.4100E+00  0.4317E+01
  10.950  0.4134E+00  0.4321E+01
  10.960  0.4185E+00  0.4326E+01
  10.970  0.4250E+00  0.4330E+01
  10.980  0.4326E+00  0.4334E+01
  10.990  0.4411E+00  0.4339E+01
  11.000  0.4501E+00  0.4343E+01
  11.010  0.4593E+00  0.4348E+01
  11.020  0.4685E+00  0.4352E+01
  11.030  0.4773E+00  0.4357E+01
  11.040  0.4856E+00  0.4362E+01
  11.050  0.4931E+00  0.4367E+01
  11.060  0.4995E+00  0.4372E+01
  11.070  0.5049E+00  0.4377E+01
  11.080  0.5091E+00  0.4382E+01
  11.090  0.5120E+00  0.4387E+01
  11.100  0.5137E+00  0.4392E+01
  11.110  0.5142E+00  0.4397E+01
  11.120  0.5135E+00  0.4403E+01
  11.130  0.5117E+00  0.4408E+01
  11.140  0.5090E+00  0.4413E+01
  11.150  0.5054E+00  0.4418E+01
  11.160  0.5010E+00  0.4423E+01
  11.170  0.4960E+00  0.4428E+01
  11.180  0.4905E+00  0.4433E+01
  11.190  0.4846E+00  0.4438E+01
  11.200  0.4784E+00  0.4442E+01
  11.210  0.4721E+00  0.4447E+01
  11.220  0.4657E+00  0.4452E+01
  11.230  0.4594E+00  0.4456E+01
  11.240  0.4532E+00  0.4461E+01
  11.250  0.4473E+00  0.4465E+01
  11.260  0.4416E+00  0.4470E+01
  11.270  0.4363E+00  0.4474E+01
  11.280  0.4313E+00  0.4478E+01
  11.290  0.4267E+00  0.4483E+01
  11.300  0.4224E+00  0.4487E+01
  11.310  0.4185E+00  0.4491E+01
  11.320  0.4148E+00  0.4495E+01
  11.330  0.4114E+00  0.4499E+01
  11.340  0.4080E+00  0.4503E+01
  11.350  0.4048E+00  0.4507E+01
  11.360  0.4015E+00  0.4512E+01
  11.370  0.3981E+00  0.4515E+01
  11.380  0.3946E+00  0.4519E+01
  11.390  0.3910E+00  0.4523E+01
  11.400  0.3873E+00  0.4527E+01
  11.410  0.3835E+00  0.4531E+01
  11.420  0.3798E+00  0.4535E+01
  11.430  0.3763E+00  0.4539E+01
  11.440  0.3731E+00  0.4542E+01
  11.450  0.3704E+00  0.4546E+01
  11.460  0.3684E+00  0.4550E+01
  11.470  0.3672E+00  0.4553E+01
  11.480  0.3672E+00  0.4557E+01
  11.490  0.3683E+00  0.4561E+01
  11.500  0.3708E+00  0.4564E+01
  11.510  0.3747E+00  0.4568E+01
  11.520  0.3800E+00  0.4572E+01
  11.530  0.3869E+00  0.4576E+01
  11.540  0.3951E+00  0.4580E+01
  11.550  0.4046E+00  0.4584E+01
  11.560  0.4152E+00  0.4588E+01
  11.570  0.4268E+00  0.4592E+01
  11.580  0.4392E+00  0.4597E+01
  11.590  0.4521E+00  0.4601E+01
  11.600  0.4652E+00  0.4606E+01
  11.610  0.4783E+00  0.4611E+01
  11.620  0.4913E+00  0.4616E+01
  11.630  0.5039E+00  0.4621E+01
  11.640  0.5159E+00  0.4626E+01
  11.650  0.5272E+00  0.4631E+01
  11.660  0.5376E+00  0.4636E+01
  11.670  0.5471E+00  0.4642E+01
  11.680  0.5557E+00  0.4647E+01
  11.690  0.5632E+00  0.4653E+01
  11.700  0.5696E+00  0.4659E+01
  11.710  0.5751E+00  0.4665E+01
  11.720  0.5795E+00  0.4670E+01
  11.730  0.5828E+00  0.4676E+01
  11.740  0.5851E+00  0.4682E+01
  11.750  0.5864E+00  0.4688E+01
  11.760  0.5866E+00  0.4694E+01
  11.770  0.5857E+00  0.4700E+01
  11.780  0.5838E+00  0.4705E+01
  11.790  0.5808E+00  0.4711E+01
  11.800  0.5766E+00  0.4717E+01
  11.810  0.5715E+00  0.4723E+01
  11.820  0.5653E+00  0.4728E+01
  11.830  0.5582E+00  0.4734E+01
  11.840  0.5503E+00  0.4739E+01
  11.850  0.5418E+00  0.4745E+01
  11.860  0.5329E+00  0.4750E+01
  11.870  0.5238E+00  0.4755E+01
  11.880  0.5148E+00  0.4761E+01
  11.890  0.5062E+00  0.4766E+01
  11.900  0.4982E+00  0.4771E+01
  11.910  0.4912E+00  0.4776E+01
  11.920  0.4853E+00  0.4780E+01
  11.930  0.4809E+00  0.4785E+01
  11.940  0.4782E+00  0.4790E+01
  11.950  0.4773E+00  0.4795E+01
  11.960  0.4782E+00  0.4800E+01
  11.970  0.4811E+00  0.4804E+01
  11.980  0.4858E+00  0.4809E+01
  11.990  0.4923E+00  0.4814E+01
  12.000  0.5003E+00  0.4819E+01
  12.010  0.5096E+00  0.4824E+01
  12.020  0.5200E+00  0.4829E+01
  12.030  0.5311E+00  0.4835E+01
  12.040  0.5425E+00  0.4840E+01
  12.050  0.5538E+00  0.4846E+01
  12.060  0.5648E+00  0.4851E+01
  12.070  0.5750E+00  0.4857E+01
  12.080  0.5841E+00  0.4863E+01
  12.090  0.5919E+00  0.4869E+01
  12.100  0.5982E+00  0.4875E+01
  12.110  0.6027E+00  0.4881E+01
  12.120  0.6054E+00  0.4887E+01
  12.130  0.6063E+00  0.4893E+01
  12.140  0.6054E+00  0.4899E+01
  12.150  0.6027E+00  0.4905E+01
  12.160  0.5985E+00  0.4911E+01
  12.170  0.5930E+00  0.4917E+01
  12.180  0.5862E+00  0.4923E+01
  12.190  0.5786E+00  0.4929E+01
  12.200  0.5702E+00  0.4934E+01
  12.210  0.5613E+00  0.4940E+01
  12.220  0.5520E+00  0.4945E+01
  12.230  0.5425E+00  0.4951E+01
  12.240  0.5329E+00  0.4956E+01
  12.250  0.5233E+00  0.4961E+01
  12.260  0.5136E+00  0.4967E+01
  12.270  0.5039E+00  0.4972E+01
  12.280  0.4941E+00  0.4977E+01
  12.290  0.4842E+00  0.4981E+01
  12.300  0.4742E+00  0.4986E+01
  12.310  0.4640E+00  0.4991E+01
  12.320  0.4536E+00  0.4995E+01
  12.330  0.4431E+00  0.5000E+01
  12.340  0.4324E+00  0.5004E+01
  12.350  0.4217E+00  0.5008E+01
  12.360  0.4112E+00  0.5012E+01
  12.370  0.4008E+00  0.5016E+01
  12.380  0.3909E+00  0.5020E+01
  12.390  0.3815E+00  0.5024E+01
  12.400  0.3729E+00  0.5028E+01
  12.410  0.3651E+00  0.5032E+01
  12.420  0.3585E+00  0.5035E+01
  12.430  0.3530E+00  0.5039E+01
  12.440  0.3488E+00  0.5042E+01
  12.450  0.3460E+00  0.5046E+01
  12.460  0.3446E+00  0.5049E+01
  12.470  0.3446E+00  0.5052E+01
  12.480  0.3460E+00  0.5056E+01
  12.490  0.3489E+00  0.5059E+01
  12.500  0.3531E+00  0.5063E+01
  12.510  0.3586E+00  0.5067E+01
  12.520  0.3654E+00  0.5070E+01
  12.530  0.3733E+00  0.5074E+01
  12.540  0.3824E+00  0.5078E+01
  12.550  0.3924E+00  0.5082E+01
  12.560  0.4033E+00  0.5086E+01
  12.570  0.4150E+00  0.5090E+01
  12.580  0.4273E+00  0.5094E+01
  12.590  0.4401E+00  0.5099E+01
  12.600  0.4532E+00  0.5103E+01
  12.610  0.4664E+00  0.5108E+01
  12.620  0.4795E+00  0.5113E+01
  12.630  0.4923E+00  0.5117E+01
  12.640  0.5046E+00  0.5122E+01
  12.650  0.5162E+00  0.5128E+01
  12.660  0.5269E+00  0.5133E+01
  12.670  0.5366E+00  0.5138E+01
  12.680  0.5451E+00  0.5144E+01
  12.690  0.5523E+00  0.5149E+01
  12.700  0.5582E+00  0.5155E+01
  12.710  0.5628E+00  0.5160E+01
  12.720  0.5661E+00  0.5166E+01
  12.730  0.5682E+00  0.5172E+01
  12.740  0.5692E+00  0.5178E+01
  12.750  0.5693E+00  0.5183E+01
  12.760  0.5687E+00  0.5189E+01
  12.770  0.5677E+00  0.5195E+01
  12.780  0.5664E+00  0.5200E+01
  12.790  0.5651E+00  0.5206E+01
  12.800  0.5640E+00  0.5212E+01
  12.810  0.5633E+00  0.5217E+01
  12.820  0.5632E+00  0.5223E+01
  12.830  0.5639E+00  0.5228E+01
  12.840  0.5655E+00  0.5234E+01
  12.850  0.5679E+00  0.5240E+01
  12.860  0.5714E+00  0.5245E+01
  12.870  0.5757E+00  0.5251E+01
  12.880  0.5810E+00  0.5257E+01
  12.890  0.5869E+00  0.5263E+01
  12.900  0.5935E+00  0.5269E+01
  12.910  0.6006E+00  0.5275E+01
  12.920  0.6079E+00  0.5281E+01
  12.930  0.6152E+00  0.5287E+01
  12.940  0.6224E+00  0.5293E+01
  12.950  0.6292E+00  0.5300E+01
  12.960  0.6355E+00  0.5306E+01
  12.970  0.6410E+00  0.5312E+01
  12.980  0.6455E+00  0.5319E+01
  12.990  0.6491E+00  0.5325E+01
  13.000  0.6515E+00  0.5332E+01
  13.010  0.6527E+00  0.5338E+01
  13.020  0.6527E+00  0.5345E+01
  13.030  0.6516E+00  0.5351E+01
  13.040  0.6493E+00  0.5358E+01
  13.050  0.6460E+00  0.5364E+01
  13.060  0.6418E+00  0.5371E+01
  13.070  0.6368E+00  0.5377E+01
  13.080  0.6314E+00  0.5383E+01
  13.090  0.6255E+00  0.5390E+01
  13.100  0.6195E+00  0.5396E+01
  13.110  0.6134E+00  0.5402E+01
  13.120  0.6075E+00  0.5408E+01
  13.130  0.6018E+00  0.5414E+01
  13.140  0.5966E+00  0.5420E+01
  13.150  0.5917E+00  0.5426E+01
  13.160  0.5872E+00  0.5432E+01
  13.170  0.5832E+00  0.5438E+01
  13.180  0.5795E+00  0.5444E+01
  13.190  0.5760E+00  0.5449E+01
  13.200  0.5726E+00  0.5455E+01
  13.210  0.5692E+00  0.5461E+01
  13.220  0.5656E+00  0.5466E+01
  13.230  0.5616E+00  0.5472E+01
  13.240  0.5571E+00  0.5478E+01
  13.250  0.5519E+00  0.5483E+01
  13.260  0.5460E+00  0.5489E+01
  13.270  0.5392E+00  0.5494E+01
  13.280  0.5314E+00  0.5499E+01
  13.290  0.5226E+00  0.5504E+01
  13.300  0.5127E+00  0.5510E+01
  13.310  0.5019E+00  0.5515E+01
  13.320  0.4901E+00  0.5519E+01
  13.330  0.4775E+00  0.5524E+01
  13.340  0.4642E+00  0.5529E+01
  13.350  0.4504E+00  0.5533E+01
  13.360  0.4362E+00  0.5538E+01
  13.370  0.4219E+00  0.5542E+01
  13.380  0.4079E+00  0.5546E+01
  13.390  0.3942E+00  0.5550E+01
  13.400  0.3814E+00  0.5554E+01
  13.410  0.3696E+00  0.5558E+01
  13.420  0.3592E+00  0.5561E+01
  13.430  0.3505E+00  0.5565E+01
  13.440  0.3437E+00  0.5568E+01
  13.450  0.3392E+00  0.5571E+01
  13.460  0.3372E+00  0.5575E+01
  13.470  0.3377E+00  0.5578E+01
  13.480  0.3410E+00  0.5582E+01
  13.490  0.3470E+00  0.5585E+01
  13.500  0.3559E+00  0.5589E+01
  13.510  0.3676E+00  0.5592E+01
  13.520  0.3819E+00  0.5596E+01
  13.530  0.3987E+00  0.5600E+01
  13.540  0.4178E+00  0.5604E+01
  13.550  0.4389E+00  0.5609E+01
  13.560  0.4617E+00  0.5613E+01
  13.570  0.4858E+00  0.5618E+01
  13.580  0.5110E+00  0.5623E+01
  13.590  0.5369E+00  0.5629E+01
  13.600  0.5630E+00  0.5634E+01
  13.610  0.5889E+00  0.5640E+01
  13.620  0.6144E+00  0.5646E+01
  13.630  0.6391E+00  0.5653E+01
  13.640  0.6625E+00  0.5659E+01
  13.650  0.6845E+00  0.5666E+01
  13.660  0.7047E+00  0.5673E+01
  13.670  0.7229E+00  0.5680E+01
  13.680  0.7389E+00  0.5688E+01
  13.690  0.7525E+00  0.5695E+01
  13.700  0.7636E+00  0.5703E+01
  13.710  0.7721E+00  0.5711E+01
  13.720  0.7779E+00  0.5718E+01
  13.730  0.7811E+00  0.5726E+01
  13.740  0.7816E+00  0.5734E+01
  13.750  0.7795E+00  0.5742E+01
  13.760  0.7750E+00  0.5750E+01
  13.770  0.7683E+00  0.5757E+01
  13.780  0.7595E+00  0.5765E+01
  13.790  0.7489E+00  0.5772E+01
  13.800  0.7369E+00  0.5780E+01
  13.810  0.7237E+00  0.5787E+01
  13.820  0.7098E+00  0.5794E+01
  13.830  0.6956E+00  0.5801E+01
  13.840  0.6814E+00  0.5808E+01
  13.850  0.6676E+00  0.5815E+01
  13.860  0.6546E+00  0.5821E+01
  13.870  0.6427E+00  0.5828E+01
  13.880  0.6321E+00  0.5834E+01
  13.890  0.6230E+00  0.5840E+01
  13.900  0.6155E+00  0.5846E+01
  13.910  0.6095E+00  0.5852E+01
  13.920  0.6050E+00  0.5858E+01
  13.930  0.6019E+00  0.5864E+01
  13.940  0.5998E+00  0.5870E+01
  13.950  0.5985E+00  0.5876E+01
  13.960  0.5976E+00  0.5882E+01
  13.970  0.5968E+00  0.5888E+01
  13.980  0.5958E+00  0.5894E+01
  13.990  0.5943E+00  0.5900E+01
  14.000  0.5920E+00  0.5906E+01
  14.010  0.5888E+00  0.5912E+01
  14.020  0.5847E+00  0.5918E+01
  14.030  0.5795E+00  0.5924E+01
  14.040  0.5733E+00  0.5929E+01
  14.050  0.5664E+00  0.5935E+01
  14.060  0.5588E+00  0.5941E+01
  14.070  0.5509E+00  0.5946E+01
  14.080  0.5429E+00  0.5952E+01
  14.090  0.5349E+00  0.5957E+01
  14.100  0.5273E+00  0.5962E+01
  14.110  0.5202E+00  0.5967E+01
  14.120  0.5138E+00  0.5973E+01
  14.130  0.5081E+00  0.5978E+01
  14.140  0.5031E+00  0.5983E+01
  14.150  0.4988E+00  0.5988E+01
  14.160  0.4951E+00  0.5993E+01
  14.170  0.4919E+00  0.5998E+01
  14.180  0.4890E+00  0.6002E+01
  14.190  0.4862E+00  0.6007E+01
  14.200  0.4836E+00  0.6012E+01
  14.210  0.4808E+00  0.6017E+01
  14.220  0.4780E+00  0.6022E+01
  14.230  0.4749E+00  0.6026E+01
  14.240  0.4717E+00  0.6031E+01
  14.250  0.4683E+00  0.6036E+01
  14.260  0.4650E+00  0.6041E+01
  14.270  0.4617E+00  0.6045E+01
  14.280  0.4587E+00  0.6050E+01
  14.290  0.4560E+00  0.6054E+01
  14.300  0.4540E+00  0.6059E+01
  14.310  0.4527E+00  0.6063E+01
  14.320  0.4522E+00  0.6068E+01
  14.330  0.4528E+00  0.6072E+01
  14.340  0.4545E+00  0.6077E+01
  14.350  0.4574E+00  0.6082E+01
  14.360  0.4615E+00  0.6086E+01
  14.370  0.4668E+00  0.6091E+01
  14.380  0.4734E+00  0.6096E+01
  14.390  0.4811E+00  0.6100E+01
  14.400  0.4899E+00  0.6105E+01
  14.410  0.4997E+00  0.6110E+01
  14.420  0.5104E+00  0.6115E+01
  14.430  0.5219E+00  0.6121E+01
  14.440  0.5339E+00  0.6126E+01
  14.450  0.5463E+00  0.6131E+01
  14.460  0.5590E+00  0.6137E+01
  14.470  0.5717E+00  0.6143E+01
  14.480  0.5843E+00  0.6149E+01
  14.490  0.5966E+00  0.6154E+01
  14.500  0.6083E+00  0.6161E+01
  14.510  0.6193E+00  0.6167E+01
  14.520  0.6295E+00  0.6173E+01
  14.530  0.6386E+00  0.6179E+01
  14.540  0.6465E+00  0.6186E+01
  14.550  0.6532E+00  0.6192E+01
  14.560  0.6585E+00  0.6199E+01
  14.570  0.6623E+00  0.6206E+01
  14.580  0.6647E+00  0.6212E+01
  14.590  0.6656E+00  0.6219E+01
  14.600  0.6651E+00  0.6226E+01
  14.610  0.6631E+00  0.6232E+01
  14.620  0.6597E+00  0.6239E+01
  14.630  0.6550E+00  0.6245E+01
  14.640  0.6491E+00  0.6252E+01
  14.650  0.6421E+00  0.6258E+01
  14.660  0.6341E+00  0.6265E+01
  14.670  0.6252E+00  0.6271E+01
  14.680  0.6157E+00  0.6277E+01
  14.690  0.6056E+00  0.6283E+01
  14.700  0.5953E+00  0.6289E+01
  14.710  0.5848E+00  0.6295E+01
  14.720  0.5743E+00  0.6301E+01
  14.730  0.5642E+00  0.6306E+01
  14.740  0.5546E+00  0.6312E+01
  14.750  0.5456E+00  0.6317E+01
  14.760  0.5376E+00  0.6323E+01
  14.770  0.5305E+00  0.6328E+01
  14.780  0.5247E+00  0.6333E+01
  14.790  0.5200E+00  0.6338E+01
  14.800  0.5166E+00  0.6344E+01
  14.810  0.5145E+00  0.6349E+01
  14.820  0.5136E+00  0.6354E+01
  14.830  0.5137E+00  0.6359E+01
  14.840  0.5149E+00  0.6364E+01
  14.850  0.5167E+00  0.6369E+01
  14.860  0.5191E+00  0.6375E+01
  14.870  0.5218E+00  0.6380E+01
  14.880  0.5245E+00  0.6385E+01
  14.890  0.5270E+00  0.6390E+01
  14.900  0.5290E+00  0.6396E+01
  14.910  0.5304E+00  0.6401E+01
  14.920  0.5308E+00  0.6406E+01
  14.930  0.5301E+00  0.6411E+01
  14.940  0.5283E+00  0.6417E+01
  14.950  0.5253E+00  0.6422E+01
  14.960  0.5211E+00  0.6427E+01
  14.970  0.5156E+00  0.6432E+01
  14.980  0.5092E+00  0.6437E+01
  14.990  0.5018E+00  0.6442E+01
  15.000  0.4938E+00  0.6447E+01
  15.010  0.4854E+00  0.6452E+01
  15.020  0.4768E+00  0.6457E+01
  15.030  0.4684E+00  0.6462E+01
  15.040  0.4605E+00  0.6466E+01
  15.050  0.4532E+00  0.6471E+01
  15.060  0.4470E+00  0.6475E+01
  15.070  0.4421E+00  0.6480E+01
  15.080  0.4386E+00  0.6484E+01
  15.090  0.4367E+00  0.6488E+01
  15.100  0.4366E+00  0.6493E+01
  15.110  0.4382E+00  0.6497E+01
  15.120  0.4415E+00  0.6502E+01
  15.130  0.4465E+00  0.6506E+01
  15.140  0.4530E+00  0.6511E+01
  15.150  0.4608E+00  0.6515E+01
  15.160  0.4697E+00  0.6520E+01
  15.170  0.4794E+00  0.6525E+01
  15.180  0.4897E+00  0.6530E+01
  15.190  0.5002E+00  0.6535E+01
  15.200  0.5106E+00  0.6540E+01
  15.210  0.5206E+00  0.6545E+01
  15.220  0.5299E+00  0.6550E+01
  15.230  0.5383E+00  0.6556E+01
  15.240  0.5455E+00  0.6561E+01
  15.250  0.5515E+00  0.6567E+01
  15.260  0.5561E+00  0.6572E+01
  15.270  0.5593E+00  0.6578E+01
  15.280  0.5611E+00  0.6583E+01
  15.290  0.5617E+00  0.6589E+01
  15.300  0.5612E+00  0.6595E+01
  15.310  0.5597E+00  0.6600E+01
  15.320  0.5576E+00  0.6606E+01
  15.330  0.5551E+00  0.6611E+01
  15.340  0.5525E+00  0.6617E+01
  15.350  0.5500E+00  0.6622E+01
  15.360  0.5480E+00  0.6628E+01
  15.370  0.5466E+00  0.6633E+01
  15.380  0.5460E+00  0.6639E+01
  15.390  0.5464E+00  0.6644E+01
  15.400  0.5478E+00  0.6650E+01
  15.410  0.5503E+00  0.6655E+01
  15.420  0.5538E+00  0.6661E+01
  15.430  0.5583E+00  0.6666E+01
  15.440  0.5636E+00  0.6672E+01
  15.450  0.5696E+00  0.6678E+01
  15.460  0.5761E+00  0.6683E+01
  15.470  0.5829E+00  0.6689E+01
  15.480  0.5897E+00  0.6695E+01
  15.490  0.5965E+00  0.6701E+01
  15.500  0.6029E+00  0.6707E+01
  15.510  0.6088E+00  0.6713E+01
  15.520  0.6139E+00  0.6719E+01
  15.530  0.6183E+00  0.6726E+01
  15.540  0.6216E+00  0.6732E+01
  15.550  0.6239E+00  0.6738E+01
  15.560  0.6250E+00  0.6744E+01
  15.570  0.6248E+00  0.6750E+01
  15.580  0.6234E+00  0.6757E+01
  15.590  0.6206E+00  0.6763E+01
  15.600  0.6167E+00  0.6769E+01
  15.610  0.6114E+00  0.6775E+01
  15.620  0.6050E+00  0.6781E+01
  15.630  0.5975E+00  0.6787E+01
  15.640  0.5890E+00  0.6793E+01
  15.650  0.5797E+00  0.6799E+01
  15.660  0.5696E+00  0.6805E+01
  15.670  0.5590E+00  0.6810E+01
  15.680  0.5481E+00  0.6816E+01
  15.690  0.5369E+00  0.6821E+01
  15.700  0.5257E+00  0.6826E+01
  15.710  0.5148E+00  0.6831E+01
  15.720  0.5042E+00  0.6837E+01
  15.730  0.4942E+00  0.6841E+01
  15.740  0.4849E+00  0.6846E+01
  15.750  0.4765E+00  0.6851E+01
  15.760  0.4691E+00  0.6856E+01
  15.770  0.4627E+00  0.6860E+01
  15.780  0.4576E+00  0.6865E+01
  15.790  0.4536E+00  0.6869E+01
  15.800  0.4508E+00  0.6874E+01
  15.810  0.4492E+00  0.6878E+01
  15.820  0.4488E+00  0.6883E+01
  15.830  0.4495E+00  0.6887E+01
  15.840  0.4512E+00  0.6892E+01
  15.850  0.4539E+00  0.6897E+01
  15.860  0.4575E+00  0.6901E+01
  15.870  0.4619E+00  0.6906E+01
  15.880  0.4670E+00  0.6910E+01
  15.890  0.4728E+00  0.6915E+01
  15.900  0.4791E+00  0.6920E+01
  15.910  0.4860E+00  0.6925E+01
  15.920  0.4933E+00  0.6930E+01
  15.930  0.5010E+00  0.6935E+01
  15.940  0.5090E+00  0.6940E+01
  15.950  0.5172E+00  0.6945E+01
  15.960  0.5254E+00  0.6950E+01
  15.970  0.5336E+00  0.6956E+01
  15.980  0.5415E+00  0.6961E+01
  15.990  0.5490E+00  0.6966E+01
  16.000  0.5558E+00  0.6972E+01
  16.010  0.5618E+00  0.6978E+01
  16.020  0.5667E+00  0.6983E+01
  16.030  0.5703E+00  0.6989E+01
  16.040  0.5724E+00  0.6995E+01
  16.050  0.5727E+00  0.7000E+01
  16.060  0.5713E+00  0.7006E+01
  16.070  0.5680E+00  0.7012E+01
  16.080  0.5627E+00  0.7017E+01
  16.090  0.5556E+00  0.7023E+01
  16.100  0.5468E+00  0.7029E+01
  16.110  0.5364E+00  0.7034E+01
  16.120  0.5247E+00  0.7039E+01
  16.130  0.5121E+00  0.7044E+01
  16.140  0.4990E+00  0.7049E+01
  16.150  0.4856E+00  0.7054E+01
  16.160  0.4726E+00  0.7059E+01
  16.170  0.4603E+00  0.7063E+01
  16.180  0.4491E+00  0.7068E+01
  16.190  0.4396E+00  0.7072E+01
  16.200  0.4319E+00  0.7077E+01
  16.210  0.4264E+00  0.7081E+01
  16.220  0.4235E+00  0.7085E+01
  16.230  0.4231E+00  0.7089E+01
  16.240  0.4253E+00  0.7094E+01
  16.250  0.4302E+00  0.7098E+01
  16.260  0.4376E+00  0.7102E+01
  16.270  0.4474E+00  0.7107E+01
  16.280  0.4591E+00  0.7111E+01
  16.290  0.4726E+00  0.7116E+01
  16.300  0.4874E+00  0.7121E+01
  16.310  0.5030E+00  0.7126E+01
  16.320  0.5191E+00  0.7131E+01
  16.330  0.5352E+00  0.7137E+01
  16.340  0.5508E+00  0.7142E+01
  16.350  0.5655E+00  0.7148E+01
  16.360  0.5790E+00  0.7153E+01
  16.370  0.5910E+00  0.7159E+01
  16.380  0.6011E+00  0.7165E+01
  16.390  0.6093E+00  0.7171E+01
  16.400  0.6153E+00  0.7178E+01
  16.410  0.6191E+00  0.7184E+01
  16.420  0.6208E+00  0.7190E+01
  16.430  0.6203E+00  0.7196E+01
  16.440  0.6179E+00  0.7202E+01
  16.450  0.6136E+00  0.7209E+01
  16.460  0.6078E+00  0.7215E+01
  16.470  0.6006E+00  0.7221E+01
  16.480  0.5924E+00  0.7227E+01
  16.490  0.5835E+00  0.7232E+01
  16.500  0.5741E+00  0.7238E+01
  16.510  0.5646E+00  0.7244E+01
  16.520  0.5553E+00  0.7249E+01
  16.530  0.5464E+00  0.7255E+01
  16.540  0.5384E+00  0.7260E+01
  16.550  0.5313E+00  0.7266E+01
  16.560  0.5255E+00  0.7271E+01
  16.570  0.5209E+00  0.7276E+01
  16.580  0.5178E+00  0.7281E+01
  16.590  0.5162E+00  0.7286E+01
  16.600  0.5160E+00  0.7291E+01
  16.610  0.5171E+00  0.7297E+01
  16.620  0.5195E+00  0.7302E+01
  16.630  0.5228E+00  0.7307E+01
  16.640  0.5270E+00  0.7312E+01
  16.650  0.5317E+00  0.7318E+01
  16.660  0.5368E+00  0.7323E+01
  16.670  0.5418E+00  0.7328E+01
  16.680  0.5466E+00  0.7334E+01
  16.690  0.5509E+00  0.7339E+01
  16.700  0.5546E+00  0.7345E+01
  16.710  0.5575E+00  0.7351E+01
  16.720  0.5594E+00  0.7356E+01
  16.730  0.5604E+00  0.7362E+01
  16.740  0.5605E+00  0.7367E+01
  16.750  0.5596E+00  0.7373E+01
  16.760  0.5579E+00  0.7379E+01
  16.770  0.5554E+00  0.7384E+01
  16.780  0.5525E+00  0.7390E+01
  16.790  0.5491E+00  0.7395E+01
  16.800  0.5455E+00  0.7401E+01
  16.810  0.5418E+00  0.7406E+01
  16.820  0.5382E+00  0.7411E+01
  16.830  0.5349E+00  0.7417E+01
  16.840  0.5318E+00  0.7422E+01
  16.850  0.5292E+00  0.7427E+01
  16.860  0.5271E+00  0.7433E+01
  16.870  0.5256E+00  0.7438E+01
  16.880  0.5245E+00  0.7443E+01
  16.890  0.5240E+00  0.7448E+01
  16.900  0.5240E+00  0.7454E+01
  16.910  0.5245E+00  0.7459E+01
  16.920  0.5254E+00  0.7464E+01
  16.930  0.5267E+00  0.7469E+01
  16.940  0.5282E+00  0.7475E+01
  16.950  0.5300E+00  0.7480E+01
  16.960  0.5320E+00  0.7485E+01
  16.970  0.5341E+00  0.7491E+01
  16.980  0.5363E+00  0.7496E+01
  16.990  0.5384E+00  0.7501E+01
  17.000  0.5405E+00  0.7507E+01
  17.010  0.5426E+00  0.7512E+01
  17.020  0.5445E+00  0.7518E+01
  17.030  0.5463E+00  0.7523E+01
  17.040  0.5479E+00  0.7529E+01
  17.050  0.5494E+00  0.7534E+01
  17.060  0.5507E+00  0.7540E+01
  17.070  0.5519E+00  0.7545E+01
  17.080  0.5530E+00  0.7551E+01
  17.090  0.5539E+00  0.7556E+01
  17.100  0.5547E+00  0.7562E+01
  17.110  0.5554E+00  0.7567E+01
  17.120  0.5559E+00  0.7573E+01
  17.130  0.5563E+00  0.7578E+01
  17.140  0.5564E+00  0.7584E+01
  17.150  0.5562E+00  0.7589E+01
  17.160  0.5556E+00  0.7595E+01
  17.170  0.5546E+00  0.7601E+01
  17.180  0.5531E+00  0.7606E+01
  17.190  0.5510E+00  0.7612E+01
  17.200  0.5482E+00  0.7617E+01
  17.210  0.5447E+00  0.7623E+01
  17.220  0.5405E+00  0.7628E+01
  17.230  0.5356E+00  0.7633E+01
  17.240  0.5300E+00  0.7639E+01
  17.250  0.5238E+00  0.7644E+01
  17.260  0.5173E+00  0.7649E+01
  17.270  0.5104E+00  0.7654E+01
  17.280  0.5035E+00  0.7659E+01
  17.290  0.4966E+00  0.7664E+01
  17.300  0.4901E+00  0.7669E+01
  17.310  0.4842E+00  0.7674E+01
  17.320  0.4789E+00  0.7679E+01
  17.330  0.4747E+00  0.7683E+01
  17.340  0.4715E+00  0.7688E+01
  17.350  0.4694E+00  0.7693E+01
  17.360  0.4685E+00  0.7697E+01
  17.370  0.4689E+00  0.7702E+01
  17.380  0.4703E+00  0.7707E+01
  17.390  0.4728E+00  0.7712E+01
  17.400  0.4761E+00  0.7716E+01
  17.410  0.4801E+00  0.7721E+01
  17.420  0.4845E+00  0.7726E+01
  17.430  0.4892E+00  0.7731E+01
  17.440  0.4939E+00  0.7736E+01
  17.450  0.4984E+00  0.7741E+01
  17.460  0.5026E+00  0.7746E+01
  17.470  0.5063E+00  0.7751E+01
  17.480  0.5095E+00  0.7756E+01
  17.490  0.5121E+00  0.7761E+01
  17.500  0.5143E+00  0.7766E+01
  17.510  0.5160E+00  0.7771E+01
  17.520  0.5175E+00  0.7777E+01
  17.530  0.5188E+00  0.7782E+01
  17.540  0.5202E+00  0.7787E+01
  17.550  0.5217E+00  0.7792E+01
  17.560  0.5237E+00  0.7797E+01
  17.570  0.5263E+00  0.7803E+01
  17.580  0.5295E+00  0.7808E+01
  17.590  0.5335E+00  0.7813E+01
  17.600  0.5383E+00  0.7819E+01
  17.610  0.5440E+00  0.7824E+01
  17.620  0.5504E+00  0.7830E+01
  17.630  0.5576E+00  0.7835E+01
  17.640  0.5653E+00  0.7841E+01
  17.650  0.5735E+00  0.7847E+01
  17.660  0.5820E+00  0.7852E+01
  17.670  0.5907E+00  0.7858E+01
  17.680  0.5994E+00  0.7864E+01
  17.690  0.6079E+00  0.7870E+01
  17.700  0.6162E+00  0.7877E+01
  17.710  0.6242E+00  0.7883E+01
  17.720  0.6318E+00  0.7889E+01
  17.730  0.6389E+00  0.7896E+01
  17.740  0.6456E+00  0.7902E+01
  17.750  0.6517E+00  0.7909E+01
  17.760  0.6573E+00  0.7915E+01
  17.770  0.6625E+00  0.7922E+01
  17.780  0.6671E+00  0.7928E+01
  17.790  0.6711E+00  0.7935E+01
  17.800  0.6746E+00  0.7942E+01
  17.810  0.6774E+00  0.7949E+01
  17.820  0.6796E+00  0.7955E+01
  17.830  0.6810E+00  0.7962E+01
  17.840  0.6816E+00  0.7969E+01
  17.850  0.6812E+00  0.7976E+01
  17.860  0.6799E+00  0.7983E+01
  17.870  0.6774E+00  0.7989E+01
  17.880  0.6738E+00  0.7996E+01
  17.890  0.6690E+00  0.8003E+01
  17.900  0.6629E+00  0.8009E+01
  17.910  0.6557E+00  0.8016E+01
  17.920  0.6472E+00  0.8023E+01
  17.930  0.6376E+00  0.8029E+01
  17.940  0.6270E+00  0.8035E+01
  17.950  0.6154E+00  0.8041E+01
  17.960  0.6031E+00  0.8047E+01
  17.970  0.5901E+00  0.8053E+01
  17.980  0.5766E+00  0.8059E+01
  17.990  0.5629E+00  0.8065E+01
  18.000  0.5489E+00  0.8070E+01
  18.010  0.5351E+00  0.8075E+01
  18.020  0.5213E+00  0.8081E+01
  18.030  0.5080E+00  0.8086E+01
  18.040  0.4951E+00  0.8091E+01
  18.050  0.4829E+00  0.8096E+01
  18.060  0.4714E+00  0.8100E+01
  18.070  0.4607E+00  0.8105E+01
  18.080  0.4511E+00  0.8109E+01
  18.090  0.4426E+00  0.8114E+01
  18.100  0.4354E+00  0.8118E+01
  18.110  0.4295E+00  0.8122E+01
  18.120  0.4250E+00  0.8127E+01
  18.130  0.4222E+00  0.8131E+01
  18.140  0.4210E+00  0.8135E+01
  18.150  0.4215E+00  0.8139E+01
  18.160  0.4238E+00  0.8144E+01
  18.170  0.4279E+00  0.8148E+01
  18.180  0.4339E+00  0.8152E+01
  18.190  0.4418E+00  0.8157E+01
  18.200  0.4513E+00  0.8161E+01
  18.210  0.4626E+00  0.8166E+01
  18.220  0.4753E+00  0.8171E+01
  18.230  0.4893E+00  0.8175E+01
  18.240  0.5044E+00  0.8180E+01
  18.250  0.5204E+00  0.8186E+01
  18.260  0.5368E+00  0.8191E+01
  18.270  0.5533E+00  0.8197E+01
  18.280  0.5697E+00  0.8202E+01
  18.290  0.5856E+00  0.8208E+01
  18.300  0.6006E+00  0.8214E+01
  18.310  0.6143E+00  0.8220E+01
  18.320  0.6266E+00  0.8227E+01
  18.330  0.6370E+00  0.8233E+01
  18.340  0.6455E+00  0.8239E+01
  18.350  0.6518E+00  0.8246E+01
  18.360  0.6558E+00  0.8252E+01
  18.370  0.6577E+00  0.8259E+01
  18.380  0.6572E+00  0.8266E+01
  18.390  0.6547E+00  0.8272E+01
  18.400  0.6502E+00  0.8279E+01
  18.410  0.6440E+00  0.8285E+01
  18.420  0.6363E+00  0.8291E+01
  18.430  0.6273E+00  0.8298E+01
  18.440  0.6175E+00  0.8304E+01
  18.450  0.6071E+00  0.8310E+01
  18.460  0.5964E+00  0.8316E+01
  18.470  0.5856E+00  0.8322E+01
  18.480  0.5752E+00  0.8328E+01
  18.490  0.5653E+00  0.8333E+01
  18.500  0.5561E+00  0.8339E+01
  18.510  0.5478E+00  0.8344E+01
  18.520  0.5405E+00  0.8350E+01
  18.530  0.5343E+00  0.8355E+01
  18.540  0.5293E+00  0.8360E+01
  18.550  0.5255E+00  0.8366E+01
  18.560  0.5228E+00  0.8371E+01
  18.570  0.5212E+00  0.8376E+01
  18.580  0.5207E+00  0.8381E+01
  18.590  0.5212E+00  0.8386E+01
  18.600  0.5225E+00  0.8392E+01
  18.610  0.5247E+00  0.8397E+01
  18.620  0.5274E+00  0.8402E+01
  18.630  0.5307E+00  0.8407E+01
  18.640  0.5345E+00  0.8413E+01
  18.650  0.5385E+00  0.8418E+01
  18.660  0.5427E+00  0.8424E+01
  18.670  0.5471E+00  0.8429E+01
  18.680  0.5514E+00  0.8435E+01
  18.690  0.5557E+00  0.8440E+01
  18.700  0.5598E+00  0.8446E+01
  18.710  0.5638E+00  0.8451E+01
  18.720  0.5675E+00  0.8457E+01
  18.730  0.5710E+00  0.8463E+01
  18.740  0.5743E+00  0.8468E+01
  18.750  0.5774E+00  0.8474E+01
  18.760  0.5802E+00  0.8480E+01
  18.770  0.5829E+00  0.8486E+01
  18.780  0.5855E+00  0.8492E+01
  18.790  0.5879E+00  0.8498E+01
  18.800  0.5904E+00  0.8504E+01
  18.810  0.5928E+00  0.8509E+01
  18.820  0.5953E+00  0.8515E+01
  18.830  0.5978E+00  0.8521E+01
  18.840  0.6006E+00  0.8527E+01
  18.850  0.6036E+00  0.8533E+01
  18.860  0.6069E+00  0.8540E+01
  18.870  0.6106E+00  0.8546E+01
  18.880  0.6148E+00  0.8552E+01
  18.890  0.6195E+00  0.8558E+01
  18.900  0.6249E+00  0.8564E+01
  18.910  0.6309E+00  0.8571E+01
  18.920  0.6377E+00  0.8577E+01
  18.930  0.6451E+00  0.8583E+01
  18.940  0.6533E+00  0.8590E+01
  18.950  0.6622E+00  0.8596E+01
  18.960  0.6716E+00  0.8603E+01
  18.970  0.6815E+00  0.8610E+01
  18.980  0.6917E+00  0.8617E+01
  18.990  0.7020E+00  0.8624E+01
  19.000  0.7123E+00  0.8631E+01
  19.010  0.7223E+00  0.8638E+01
  19.020  0.7317E+00  0.8646E+01
  19.030  0.7405E+00  0.8653E+01
  19.040  0.7484E+00  0.8661E+01
  19.050  0.7552E+00  0.8668E+01
  19.060  0.7609E+00  0.8676E+01
  19.070  0.7655E+00  0.8683E+01
  19.080  0.7689E+00  0.8691E+01
  19.090  0.7711E+00  0.8699E+01
  19.100  0.7722E+00  0.8706E+01
  19.110  0.7724E+00  0.8714E+01
  19.120  0.7718E+00  0.8722E+01
  19.130  0.7705E+00  0.8730E+01
  19.140  0.7687E+00  0.8737E+01
  19.150  0.7665E+00  0.8745E+01
  19.160  0.7641E+00  0.8753E+01
  19.170  0.7615E+00  0.8760E+01
  19.180  0.7588E+00  0.8768E+01
  19.190  0.7560E+00  0.8775E+01
  19.200  0.7532E+00  0.8783E+01
  19.210  0.7502E+00  0.8790E+01
  19.220  0.7471E+00  0.8798E+01
  19.230  0.7438E+00  0.8805E+01
  19.240  0.7401E+00  0.8813E+01
  19.250  0.7359E+00  0.8820E+01
  19.260  0.7313E+00  0.8827E+01
  19.270  0.7260E+00  0.8835E+01
  19.280  0.7199E+00  0.8842E+01
  19.290  0.7131E+00  0.8849E+01
  19.300  0.7055E+00  0.8856E+01
  19.310  0.6970E+00  0.8863E+01
  19.320  0.6877E+00  0.8870E+01
  19.330  0.6775E+00  0.8877E+01
  19.340  0.6665E+00  0.8883E+01
  19.350  0.6547E+00  0.8890E+01
  19.360  0.6423E+00  0.8896E+01
  19.370  0.6293E+00  0.8903E+01
  19.380  0.6158E+00  0.8909E+01
  19.390  0.6020E+00  0.8915E+01
  19.400  0.5881E+00  0.8921E+01
  19.410  0.5743E+00  0.8926E+01
  19.420  0.5607E+00  0.8932E+01
  19.430  0.5475E+00  0.8937E+01
  19.440  0.5350E+00  0.8943E+01
  19.450  0.5235E+00  0.8948E+01
  19.460  0.5130E+00  0.8953E+01
  19.470  0.5039E+00  0.8958E+01
  19.480  0.4963E+00  0.8963E+01
  19.490  0.4903E+00  0.8968E+01
  19.500  0.4860E+00  0.8973E+01
  19.510  0.4836E+00  0.8978E+01
  19.520  0.4830E+00  0.8983E+01
  19.530  0.4842E+00  0.8987E+01
  19.540  0.4870E+00  0.8992E+01
  19.550  0.4915E+00  0.8997E+01
  19.560  0.4974E+00  0.9002E+01
  19.570  0.5045E+00  0.9007E+01
  19.580  0.5126E+00  0.9012E+01
  19.590  0.5216E+00  0.9018E+01
  19.600  0.5311E+00  0.9023E+01
  19.610  0.5410E+00  0.9028E+01
  19.620  0.5512E+00  0.9034E+01
  19.630  0.5614E+00  0.9039E+01
  19.640  0.5715E+00  0.9045E+01
  19.650  0.5814E+00  0.9051E+01
  19.660  0.5911E+00  0.9057E+01
  19.670  0.6006E+00  0.9063E+01
  19.680  0.6097E+00  0.9069E+01
  19.690  0.6184E+00  0.9075E+01
  19.700  0.6269E+00  0.9081E+01
  19.710  0.6350E+00  0.9088E+01
  19.720  0.6427E+00  0.9094E+01
  19.730  0.6501E+00  0.9101E+01
  19.740  0.6572E+00  0.9107E+01
  19.750  0.6638E+00  0.9114E+01
  19.760  0.6699E+00  0.9121E+01
  19.770  0.6755E+00  0.9127E+01
  19.780  0.6806E+00  0.9134E+01
  19.790  0.6851E+00  0.9141E+01
  19.800  0.6889E+00  0.9148E+01
  19.810  0.6920E+00  0.9155E+01
  19.820  0.6944E+00  0.9162E+01
  19.830  0.6960E+00  0.9169E+01
  19.840  0.6969E+00  0.9176E+01
  19.850  0.6970E+00  0.9183E+01
  19.860  0.6964E+00  0.9190E+01
  19.870  0.6951E+00  0.9197E+01
  19.880  0.6932E+00  0.9204E+01
  19.890  0.6908E+00  0.9210E+01
  19.900  0.6878E+00  0.9217E+01
  19.910  0.6845E+00  0.9224E+01
  19.920  0.6809E+00  0.9231E+01
  19.930  0.6770E+00  0.9238E+01
  19.940  0.6730E+00  0.9244E+01
  19.950  0.6689E+00  0.9251E+01
  19.960  0.6648E+00  0.9258E+01
  19.970  0.6607E+00  0.9264E+01
  19.980  0.6569E+00  0.9271E+01
  19.990  0.6533E+00  0.9278E+01
  20.000  0.6500E+00  0.9284E+01
  20.010  0.6472E+00  0.9290E+01
  20.020  0.6449E+00  0.9297E+01
  20.030  0.6432E+00  0.9303E+01
  20.040  0.6423E+00  0.9310E+01
  20.050  0.6421E+00  0.9316E+01
  20.060  0.6429E+00  0.9323E+01
  20.070  0.6447E+00  0.9329E+01
  20.080  0.6476E+00  0.9336E+01
  20.090  0.6515E+00  0.9342E+01
  20.100  0.6565E+00  0.9349E+01
  20.110  0.6626E+00  0.9355E+01
  20.120  0.6697E+00  0.9362E+01
  20.130  0.6777E+00  0.9369E+01
  20.140  0.6865E+00  0.9376E+01
  20.150  0.6960E+00  0.9383E+01
  20.160  0.7059E+00  0.9390E+01
  20.170  0.7160E+00  0.9397E+01
  20.180  0.7262E+00  0.9404E+01
  20.190  0.7362E+00  0.9411E+01
  20.200  0.7457E+00  0.9419E+01
  20.210  0.7546E+00  0.9426E+01
  20.220  0.7626E+00  0.9434E+01
  20.230  0.7696E+00  0.9442E+01
  20.240  0.7754E+00  0.9449E+01
  20.250  0.7799E+00  0.9457E+01
  20.260  0.7832E+00  0.9465E+01
  20.270  0.7851E+00  0.9473E+01
  20.280  0.7858E+00  0.9481E+01
  20.290  0.7854E+00  0.9489E+01
  20.300  0.7841E+00  0.9497E+01
  20.310  0.7821E+00  0.9504E+01
  20.320  0.7796E+00  0.9512E+01
  20.330  0.7768E+00  0.9520E+01
  20.340  0.7740E+00  0.9528E+01
  20.350  0.7714E+00  0.9535E+01
  20.360  0.7693E+00  0.9543E+01
  20.370  0.7677E+00  0.9551E+01
  20.380  0.7667E+00  0.9558E+01
  20.390  0.7664E+00  0.9566E+01
  20.400  0.7667E+00  0.9574E+01
  20.410  0.7675E+00  0.9581E+01
  20.420  0.7687E+00  0.9589E+01
  20.430  0.7700E+00  0.9597E+01
  20.440  0.7712E+00  0.9605E+01
  20.450  0.7721E+00  0.9612E+01
  20.460  0.7723E+00  0.9620E+01
  20.470  0.7715E+00  0.9628E+01
  20.480  0.7697E+00  0.9635E+01
  20.490  0.7665E+00  0.9643E+01
  20.500  0.7618E+00  0.9651E+01
  20.510  0.7555E+00  0.9658E+01
  20.520  0.7475E+00  0.9666E+01
  20.530  0.7378E+00  0.9673E+01
  20.540  0.7264E+00  0.9680E+01
  20.550  0.7135E+00  0.9687E+01
  20.560  0.6992E+00  0.9694E+01
  20.570  0.6835E+00  0.9701E+01
  20.580  0.6667E+00  0.9708E+01
  20.590  0.6489E+00  0.9714E+01
  20.600  0.6303E+00  0.9721E+01
  20.610  0.6111E+00  0.9727E+01
  20.620  0.5915E+00  0.9733E+01
  20.630  0.5717E+00  0.9738E+01
  20.640  0.5520E+00  0.9744E+01
  20.650  0.5325E+00  0.9749E+01
  20.660  0.5135E+00  0.9754E+01
  20.670  0.4952E+00  0.9759E+01
  20.680  0.4778E+00  0.9764E+01
  20.690  0.4616E+00  0.9769E+01
  20.700  0.4469E+00  0.9773E+01
  20.710  0.4338E+00  0.9778E+01
  20.720  0.4228E+00  0.9782E+01
  20.730  0.4138E+00  0.9786E+01
  20.740  0.4073E+00  0.9790E+01
  20.750  0.4033E+00  0.9794E+01
  20.760  0.4021E+00  0.9798E+01
  20.770  0.4036E+00  0.9802E+01
  20.780  0.4079E+00  0.9806E+01
  20.790  0.4149E+00  0.9810E+01
  20.800  0.4246E+00  0.9815E+01
  20.810  0.4367E+00  0.9819E+01
  20.820  0.4511E+00  0.9823E+01
  20.830  0.4673E+00  0.9828E+01
  20.840  0.4851E+00  0.9833E+01
  20.850  0.5040E+00  0.9838E+01
  20.860  0.5236E+00  0.9843E+01
  20.870  0.5434E+00  0.9849E+01
  20.880  0.5630E+00  0.9854E+01
  20.890  0.5820E+00  0.9860E+01
  20.900  0.5999E+00  0.9866E+01
  20.910  0.6165E+00  0.9872E+01
  20.920  0.6314E+00  0.9879E+01
  20.930  0.6446E+00  0.9885E+01
  20.940  0.6558E+00  0.9892E+01
  20.950  0.6651E+00  0.9898E+01
  20.960  0.6725E+00  0.9905E+01
  20.970  0.6781E+00  0.9912E+01
  20.980  0.6820E+00  0.9919E+01
  20.990  0.6846E+00  0.9925E+01
  21.000  0.6861E+00  0.9932E+01
  21.010  0.6867E+00  0.9939E+01
  21.020  0.6868E+00  0.9946E+01
  21.030  0.6867E+00  0.9953E+01
  21.040  0.6866E+00  0.9960E+01
  21.050  0.6867E+00  0.9967E+01
  21.060  0.6874E+00  0.9974E+01
  21.070  0.6886E+00  0.9980E+01
  21.080  0.6906E+00  0.9987E+01
  21.090  0.6933E+00  0.9994E+01
  21.100  0.6968E+00  0.1000E+02
  21.110  0.7009E+00  0.1001E+02
  21.120  0.7055E+00  0.1002E+02
  21.130  0.7106E+00  0.1002E+02
  21.140  0.7158E+00  0.1003E+02
  21.150  0.7209E+00  0.1004E+02
  21.160  0.7258E+00  0.1004E+02
  21.170  0.7301E+00  0.1005E+02
  21.180  0.7336E+00  0.1006E+02
  21.190  0.7361E+00  0.1007E+02
  21.200  0.7374E+00  0.1007E+02
  21.210  0.7374E+00  0.1008E+02
  21.220  0.7361E+00  0.1009E+02
  21.230  0.7334E+00  0.1010E+02
  21.240  0.7294E+00  0.1010E+02
  21.250  0.7241E+00  0.1011E+02
  21.260  0.7176E+00  0.1012E+02
  21.270  0.7103E+00  0.1012E+02
  21.280  0.7022E+00  0.1013E+02
  21.290  0.6936E+00  0.1014E+02
  21.300  0.6848E+00  0.1015E+02
  21.310  0.6760E+00  0.1015E+02
  21.320  0.6673E+00  0.1016E+02
  21.330  0.6590E+00  0.1017E+02
  21.340  0.6512E+00  0.1017E+02
  21.350  0.6439E+00  0.1018E+02
  21.360  0.6373E+00  0.1018E+02
  21.370  0.6313E+00  0.1019E+02
  21.380  0.6259E+00  0.1020E+02
  21.390  0.6210E+00  0.1020E+02
  21.400  0.6165E+00  0.1021E+02
  21.410  0.6123E+00  0.1022E+02
  21.420  0.6082E+00  0.1022E+02
  21.430  0.6040E+00  0.1023E+02
  21.440  0.5998E+00  0.1023E+02
  21.450  0.5953E+00  0.1024E+02
  21.460  0.5905E+00  0.1025E+02
  21.470  0.5853E+00  0.1025E+02
  21.480  0.5797E+00  0.1026E+02
  21.490  0.5738E+00  0.1026E+02
  21.500  0.5675E+00  0.1027E+02
  21.510  0.5609E+00  0.1027E+02
  21.520  0.5541E+00  0.1028E+02
  21.530  0.5471E+00  0.1029E+02
  21.540  0.5400E+00  0.1029E+02
  21.550  0.5328E+00  0.1030E+02
  21.560  0.5256E+00  0.1030E+02
  21.570  0.5185E+00  0.1031E+02
  21.580  0.5114E+00  0.1031E+02
  21.590  0.5043E+00  0.1032E+02
  21.600  0.4973E+00  0.1032E+02
  21.610  0.4903E+00  0.1033E+02
  21.620  0.4832E+00  0.1033E+02
  21.630  0.4762E+00  0.1034E+02
  21.640  0.4692E+00  0.1034E+02
  21.650  0.4623E+00  0.1035E+02
  21.660  0.4554E+00  0.1035E+02
  21.670  0.4487E+00  0.1035E+02
  21.680  0.4422E+00  0.1036E+02
  21.690  0.4361E+00  0.1036E+02
  21.700  0.4305E+00  0.1037E+02
  21.710  0.4255E+00  0.1037E+02
  21.720  0.4213E+00  0.1038E+02
  21.730  0.4179E+00  0.1038E+02
  21.740  0.4155E+00  0.1038E+02
  21.750  0.4142E+00  0.1039E+02
  21.760  0.4141E+00  0.1039E+02
  21.770  0.4151E+00  0.1040E+02
  21.780  0.4173E+00  0.1040E+02
  21.790  0.4207E+00  0.1041E+02
  21.800  0.4251E+00  0.1041E+02
  21.810  0.4306E+00  0.1041E+02
  21.820  0.4371E+00  0.1042E+02
  21.830  0.4443E+00  0.1042E+02
  21.840  0.4522E+00  0.1043E+02
  21.850  0.4607E+00  0.1043E+02
  21.860  0.4697E+00  0.1044E+02
  21.870  0.4791E+00  0.1044E+02
  21.880  0.4888E+00  0.1045E+02
  21.890  0.4988E+00  0.1045E+02
  21.900  0.5090E+00  0.1046E+02
  21.910  0.5194E+00  0.1046E+02
  21.920  0.5301E+00  0.1047E+02
  21.930  0.5411E+00  0.1047E+02
  21.940  0.5525E+00  0.1048E+02
  21.950  0.5642E+00  0.1048E+02
  21.960  0.5764E+00  0.1049E+02
  21.970  0.5891E+00  0.1049E+02
  21.980  0.6024E+00  0.1050E+02
  21.990  0.6163E+00  0.1051E+02
  22.000  0.6306E+00  0.1051E+02
  22.010  0.6454E+00  0.1052E+02
  22.020  0.6606E+00  0.1053E+02
  22.030  0.6759E+00  0.1053E+02
  22.040  0.6913E+00  0.1054E+02
  22.050  0.7065E+00  0.1055E+02
  22.060  0.7213E+00  0.1055E+02
  22.070  0.7354E+00  0.1056E+02
  22.080  0.7485E+00  0.1057E+02
  22.090  0.7605E+00  0.1058E+02
  22.100  0.7711E+00  0.1058E+02
  22.110  0.7802E+00  0.1059E+02
  22.120  0.7877E+00  0.1060E+02
  22.130  0.7935E+00  0.1061E+02
  22.140  0.7977E+00  0.1062E+02
  22.150  0.8004E+00  0.1062E+02
  22.160  0.8017E+00  0.1063E+02
  22.170  0.8019E+00  0.1064E+02
  22.180  0.8012E+00  0.1065E+02
  22.190  0.7998E+00  0.1066E+02
  22.200  0.7980E+00  0.1066E+02
  22.210  0.7961E+00  0.1067E+02
  22.220  0.7941E+00  0.1068E+02
  22.230  0.7923E+00  0.1069E+02
  22.240  0.7907E+00  0.1070E+02
  22.250  0.7894E+00  0.1070E+02
  22.260  0.7882E+00  0.1071E+02
  22.270  0.7872E+00  0.1072E+02
  22.280  0.7861E+00  0.1073E+02
  22.290  0.7847E+00  0.1074E+02
  22.300  0.7829E+00  0.1074E+02
  22.310  0.7804E+00  0.1075E+02
  22.320  0.7771E+00  0.1076E+02
  22.330  0.7727E+00  0.1077E+02
  22.340  0.7672E+00  0.1077E+02
  22.350  0.7604E+00  0.1078E+02
  22.360  0.7523E+00  0.1079E+02
  22.370  0.7430E+00  0.1080E+02
  22.380  0.7326E+00  0.1080E+02
  22.390  0.7211E+00  0.1081E+02
  22.400  0.7088E+00  0.1082E+02
  22.410  0.6960E+00  0.1083E+02
  22.420  0.6829E+00  0.1083E+02
  22.430  0.6697E+00  0.1084E+02
  22.440  0.6569E+00  0.1085E+02
  22.450  0.6447E+00  0.1085E+02
  22.460  0.6333E+00  0.1086E+02
  22.470  0.6232E+00  0.1086E+02
  22.480  0.6144E+00  0.1087E+02
  22.490  0.6072E+00  0.1088E+02
  22.500  0.6017E+00  0.1088E+02
  22.510  0.5981E+00  0.1089E+02
  22.520  0.5963E+00  0.1089E+02
  22.530  0.5962E+00  0.1090E+02
  22.540  0.5979E+00  0.1091E+02
  22.550  0.6011E+00  0.1091E+02
  22.560  0.6055E+00  0.1092E+02
  22.570  0.6110E+00  0.1092E+02
  22.580  0.6172E+00  0.1093E+02
  22.590  0.6238E+00  0.1094E+02
  22.600  0.6304E+00  0.1094E+02
  22.610  0.6368E+00  0.1095E+02
  22.620  0.6425E+00  0.1096E+02
  22.630  0.6473E+00  0.1096E+02
  22.640  0.6510E+00  0.1097E+02
  22.650  0.6534E+00  0.1098E+02
  22.660  0.6542E+00  0.1098E+02
  22.670  0.6536E+00  0.1099E+02
  22.680  0.6514E+00  0.1100E+02
  22.690  0.6477E+00  0.1100E+02
  22.700  0.6426E+00  0.1101E+02
  22.710  0.6364E+00  0.1101E+02
  22.720  0.6292E+00  0.1102E+02
  22.730  0.6214E+00  0.1103E+02
  22.740  0.6132E+00  0.1103E+02
  22.750  0.6049E+00  0.1104E+02
  22.760  0.5968E+00  0.1104E+02
  22.770  0.5893E+00  0.1105E+02
  22.780  0.5825E+00  0.1106E+02
  22.790  0.5768E+00  0.1106E+02
  22.800  0.5724E+00  0.1107E+02
  22.810  0.5693E+00  0.1107E+02
  22.820  0.5677E+00  0.1108E+02
  22.830  0.5677E+00  0.1109E+02
  22.840  0.5693E+00  0.1109E+02
  22.850  0.5723E+00  0.1110E+02
  22.860  0.5767E+00  0.1110E+02
  22.870  0.5824E+00  0.1111E+02
  22.880  0.5891E+00  0.1111E+02
  22.890  0.5966E+00  0.1112E+02
  22.900  0.6048E+00  0.1113E+02
  22.910  0.6133E+00  0.1113E+02
  22.920  0.6220E+00  0.1114E+02
  22.930  0.6306E+00  0.1114E+02
  22.940  0.6390E+00  0.1115E+02
  22.950  0.6469E+00  0.1116E+02
  22.960  0.6542E+00  0.1116E+02
  22.970  0.6608E+00  0.1117E+02
  22.980  0.6665E+00  0.1118E+02
  22.990  0.6713E+00  0.1118E+02
  23.000  0.6750E+00  0.1119E+02
  23.010  0.6777E+00  0.1120E+02
  23.020  0.6792E+00  0.1120E+02
  23.030  0.6795E+00  0.1121E+02
  23.040  0.6785E+00  0.1122E+02
  23.050  0.6761E+00  0.1122E+02
  23.060  0.6724E+00  0.1123E+02
  23.070  0.6673E+00  0.1124E+02
  23.080  0.6608E+00  0.1124E+02
  23.090  0.6528E+00  0.1125E+02
  23.100  0.6435E+00  0.1126E+02
  23.110  0.6328E+00  0.1126E+02
  23.120  0.6209E+00  0.1127E+02
  23.130  0.6080E+00  0.1128E+02
  23.140  0.5941E+00  0.1128E+02
  23.150  0.5794E+00  0.1129E+02
  23.160  0.5643E+00  0.1129E+02
  23.170  0.5488E+00  0.1130E+02
  23.180  0.5333E+00  0.1130E+02
  23.190  0.5179E+00  0.1131E+02
  23.200  0.5028E+00  0.1131E+02
  23.210  0.4882E+00  0.1132E+02
  23.220  0.4743E+00  0.1132E+02
  23.230  0.4611E+00  0.1133E+02
  23.240  0.4488E+00  0.1133E+02
  23.250  0.4373E+00  0.1134E+02
  23.260  0.4266E+00  0.1134E+02
  23.270  0.4168E+00  0.1135E+02
  23.280  0.4078E+00  0.1135E+02
  23.290  0.3995E+00  0.1135E+02
  23.300  0.3919E+00  0.1136E+02
  23.310  0.3849E+00  0.1136E+02
  23.320  0.3784E+00  0.1137E+02
  23.330  0.3726E+00  0.1137E+02
  23.340  0.3673E+00  0.1137E+02
  23.350  0.3626E+00  0.1138E+02
  23.360  0.3584E+00  0.1138E+02
  23.370  0.3549E+00  0.1138E+02
  23.380  0.3521E+00  0.1139E+02
  23.390  0.3500E+00  0.1139E+02
  23.400  0.3487E+00  0.1139E+02
  23.410  0.3483E+00  0.1140E+02
  23.420  0.3487E+00  0.1140E+02
  23.430  0.3500E+00  0.1141E+02
  23.440  0.3522E+00  0.1141E+02
  23.450  0.3553E+00  0.1141E+02
  23.460  0.3592E+00  0.1142E+02
  23.470  0.3639E+00  0.1142E+02
  23.480  0.3693E+00  0.1142E+02
  23.490  0.3753E+00  0.1143E+02
  23.500  0.3819E+00  0.1143E+02
  23.510  0.3888E+00  0.1143E+02
  23.520  0.3959E+00  0.1144E+02
  23.530  0.4033E+00  0.1144E+02
  23.540  0.4107E+00  0.1145E+02
  23.550  0.4181E+00  0.1145E+02
  23.560  0.4254E+00  0.1146E+02
  23.570  0.4326E+00  0.1146E+02
  23.580  0.4397E+00  0.1146E+02
  23.590  0.4467E+00  0.1147E+02
  23.600  0.4537E+00  0.1147E+02
  23.610  0.4607E+00  0.1148E+02
  23.620  0.4679E+00  0.1148E+02
  23.630  0.4753E+00  0.1149E+02
  23.640  0.4832E+00  0.1149E+02
  23.650  0.4915E+00  0.1150E+02
  23.660  0.5004E+00  0.1150E+02
  23.670  0.5101E+00  0.1151E+02
  23.680  0.5204E+00  0.1151E+02
  23.690  0.5313E+00  0.1152E+02
  23.700  0.5429E+00  0.1152E+02
  23.710  0.5549E+00  0.1153E+02
  23.720  0.5673E+00  0.1153E+02
  23.730  0.5796E+00  0.1154E+02
  23.740  0.5918E+00  0.1155E+02
  23.750  0.6035E+00  0.1155E+02
  23.760  0.6143E+00  0.1156E+02
  23.770  0.6240E+00  0.1156E+02
  23.780  0.6323E+00  0.1157E+02
  23.790  0.6388E+00  0.1158E+02
  23.800  0.6434E+00  0.1158E+02
  23.810  0.6460E+00  0.1159E+02
  23.820  0.6464E+00  0.1160E+02
  23.830  0.6445E+00  0.1160E+02
  23.840  0.6404E+00  0.1161E+02
  23.850  0.6342E+00  0.1162E+02
  23.860  0.6261E+00  0.1162E+02
  23.870  0.6162E+00  0.1163E+02
  23.880  0.6048E+00  0.1163E+02
  23.890  0.5921E+00  0.1164E+02
  23.900  0.5784E+00  0.1165E+02
  23.910  0.5639E+00  0.1165E+02
  23.920  0.5491E+00  0.1166E+02
  23.930  0.5341E+00  0.1166E+02
  23.940  0.5191E+00  0.1167E+02
  23.950  0.5044E+00  0.1167E+02
  23.960  0.4903E+00  0.1168E+02
  23.970  0.4767E+00  0.1168E+02
  23.980  0.4640E+00  0.1169E+02
  23.990  0.4520E+00  0.1169E+02
  24.000  0.4410E+00  0.1170E+02
  24.010  0.4308E+00  0.1170E+02
  24.020  0.4216E+00  0.1170E+02
  24.030  0.4131E+00  0.1171E+02
  24.040  0.4054E+00  0.1171E+02
  24.050  0.3984E+00  0.1172E+02
  24.060  0.3918E+00  0.1172E+02
  24.070  0.3857E+00  0.1172E+02
  24.080  0.3798E+00  0.1173E+02
  24.090  0.3740E+00  0.1173E+02
  24.100  0.3682E+00  0.1174E+02
  24.110  0.3622E+00  0.1174E+02
  24.120  0.3560E+00  0.1174E+02
  24.130  0.3494E+00  0.1175E+02
  24.140  0.3423E+00  0.1175E+02
  24.150  0.3348E+00  0.1175E+02
  24.160  0.3267E+00  0.1176E+02
  24.170  0.3181E+00  0.1176E+02
  24.180  0.3090E+00  0.1176E+02
  24.190  0.2993E+00  0.1177E+02
  24.200  0.2893E+00  0.1177E+02
  24.210  0.2788E+00  0.1177E+02
  24.220  0.2681E+00  0.1177E+02
  24.230  0.2571E+00  0.1178E+02
  24.240  0.2461E+00  0.1178E+02
  24.250  0.2352E+00  0.1178E+02
  24.260  0.2245E+00  0.1178E+02
  24.270  0.2142E+00  0.1179E+02
  24.280  0.2043E+00  0.1179E+02
  24.290  0.1950E+00  0.1179E+02
  24.300  0.1865E+00  0.1179E+02
  24.310  0.1788E+00  0.1179E+02
  24.320  0.1719E+00  0.1179E+02
  24.330  0.1660E+00  0.1180E+02
  24.340  0.1610E+00  0.1180E+02
  24.350  0.1569E+00  0.1180E+02
  24.360  0.1537E+00  0.1180E+02
  24.370  0.1512E+00  0.1180E+02
  24.380  0.1493E+00  0.1180E+02
  24.390  0.1479E+00  0.1181E+02
  24.400  0.1468E+00  0.1181E+02
  24.410  0.1459E+00  0.1181E+02
  24.420  0.1450E+00  0.1181E+02
  24.430  0.1440E+00  0.1181E+02
  24.440  0.1427E+00  0.1181E+02
  24.450  0.1411E+00  0.1181E+02
  24.460  0.1390E+00  0.1182E+02
  24.470  0.1364E+00  0.1182E+02
  24.480  0.1333E+00  0.1182E+02
  24.490  0.1298E+00  0.1182E+02
  24.500  0.1257E+00  0.1182E+02
  24.510  0.1213E+00  0.1182E+02
  24.520  0.1166E+00  0.1182E+02
  24.530  0.1117E+00  0.1182E+02
  24.540  0.1067E+00  0.1183E+02
  24.550  0.1018E+00  0.1183E+02
  24.560  0.9697E-01  0.1183E+02
  24.570  0.9244E-01  0.1183E+02
  24.580  0.8828E-01  0.1183E+02
  24.590  0.8459E-01  0.1183E+02
  24.600  0.8146E-01  0.1183E+02
  24.610  0.7894E-01  0.1183E+02
  24.620  0.7710E-01  0.1183E+02
  24.630  0.7598E-01  0.1183E+02
  24.640  0.7558E-01  0.1183E+02
  24.650  0.7592E-01  0.1183E+02
  24.660  0.7696E-01  0.1184E+02
  24.670  0.7868E-01  0.1184E+02
  24.680  0.8102E-01  0.1184E+02
  24.690  0.8391E-01  0.1184E+02
  24.700  0.8725E-01  0.1184E+02
  24.710  0.9095E-01  0.1184E+02
  24.720  0.9490E-01  0.1184E+02
  24.730  0.9898E-01  0.1184E+02
  24.740  0.1031E+00  0.1184E+02
  24.750  0.1071E+00  0.1184E+02
  24.760  0.1109E+00  0.1184E+02
  24.770  0.1143E+00  0.1185E+02
  24.780  0.1174E+00  0.1185E+02
  24.790  0.1200E+00  0.1185E+02
  24.800  0.1221E+00  0.1185E+02
  24.810  0.1236E+00  0.1185E+02
  24.820  0.1246E+00  0.1185E+02
  24.830  0.1250E+00  0.1185E+02
  24.840  0.1249E+00  0.1185E+02
  24.850  0.1244E+00  0.1186E+02
  24.860  0.1233E+00  0.1186E+02
  24.870  0.1219E+00  0.1186E+02
  24.880  0.1202E+00  0.1186E+02
  24.890  0.1183E+00  0.1186E+02
  24.900  0.1161E+00  0.1186E+02
  24.910  0.1139E+00  0.1186E+02
  24.920  0.1116E+00  0.1186E+02
  24.930  0.1093E+00  0.1187E+02
  24.940  0.1070E+00  0.1187E+02
  24.950  0.1049E+00  0.1187E+02
  24.960  0.1029E+00  0.1187E+02
  24.970  0.1010E+00  0.1187E+02
  24.980  0.9932E-01  0.1187E+02
  24.990  0.9782E-01  0.1187E+02
  25.000  0.9651E-01  0.1187E+02
  25.010  0.9539E-01  0.1187E+02
  25.020  0.9447E-01  0.1187E+02
  25.030  0.9373E-01  0.1187E+02
  25.040  0.9317E-01  0.1188E+02
  25.050  0.9277E-01  0.1188E+02
  25.060  0.9253E-01  0.1188E+02
  25.070  0.9244E-01  0.1188E+02
  25.080  0.9249E-01  0.1188E+02
  25.090  0.9266E-01  0.1188E+02
  25.100  0.9295E-01  0.1188E+02
  25.110  0.9335E-01  0.1188E+02
  25.120  0.9386E-01  0.1188E+02
  25.130  0.9445E-01  0.1188E+02
  25.140  0.9513E-01  0.1189E+02
  25.150  0.9587E-01  0.1189E+02
  25.160  0.9667E-01  0.1189E+02
  25.170  0.9752E-01  0.1189E+02
  25.180  0.9840E-01  0.1189E+02
  25.190  0.9931E-01  0.1189E+02
  25.200  0.1003E+00  0.1189E+02
  25.210  0.1013E+00  0.1189E+02
  25.220  0.1023E+00  0.1189E+02
  25.230  0.1035E+00  0.1189E+02
  25.240  0.1048E+00  0.1190E+02
  25.250  0.1064E+00  0.1190E+02
  25.260  0.1082E+00  0.1190E+02
  25.270  0.1105E+00  0.1190E+02
  25.280  0.1132E+00  0.1190E+02
  25.290  0.1165E+00  0.1190E+02
  25.300  0.1205E+00  0.1190E+02
  25.310  0.1252E+00  0.1190E+02
  25.320  0.1307E+00  0.1190E+02
  25.330  0.1370E+00  0.1191E+02
  25.340  0.1441E+00  0.1191E+02
  25.350  0.1520E+00  0.1191E+02
  25.360  0.1605E+00  0.1191E+02
  25.370  0.1695E+00  0.1191E+02
  25.380  0.1788E+00  0.1191E+02
  25.390  0.1882E+00  0.1192E+02
  25.400  0.1975E+00  0.1192E+02
  25.410  0.2064E+00  0.1192E+02
  25.420  0.2146E+00  0.1192E+02
  25.430  0.2219E+00  0.1192E+02
  25.440  0.2281E+00  0.1193E+02
  25.450  0.2328E+00  0.1193E+02
  25.460  0.2361E+00  0.1193E+02
  25.470  0.2377E+00  0.1193E+02
  25.480  0.2376E+00  0.1194E+02
  25.490  0.2359E+00  0.1194E+02
  25.500  0.2326E+00  0.1194E+02
  25.510  0.2278E+00  0.1194E+02
  25.520  0.2218E+00  0.1195E+02
  25.530  0.2148E+00  0.1195E+02
  25.540  0.2069E+00  0.1195E+02
  25.550  0.1985E+00  0.1195E+02
  25.560  0.1899E+00  0.1195E+02
  25.570  0.1813E+00  0.1196E+02
  25.580  0.1728E+00  0.1196E+02
  25.590  0.1647E+00  0.1196E+02
  25.600  0.1572E+00  0.1196E+02
  25.610  0.1502E+00  0.1196E+02
  25.620  0.1439E+00  0.1196E+02
  25.630  0.1383E+00  0.1196E+02
  25.640  0.1332E+00  0.1197E+02
  25.650  0.1286E+00  0.1197E+02
  25.660  0.1245E+00  0.1197E+02
  25.670  0.1207E+00  0.1197E+02
  25.680  0.1170E+00  0.1197E+02
  25.690  0.1133E+00  0.1197E+02
  25.700  0.1096E+00  0.1197E+02
  25.710  0.1058E+00  0.1197E+02
  25.720  0.1017E+00  0.1197E+02
  25.730  0.9727E-01  0.1198E+02
  25.740  0.9258E-01  0.1198E+02
  25.750  0.8758E-01  0.1198E+02
  25.760  0.8230E-01  0.1198E+02
  25.770  0.7680E-01  0.1198E+02
  25.780  0.7112E-01  0.1198E+02
  25.790  0.6535E-01  0.1198E+02
  25.800  0.5956E-01  0.1198E+02
  25.810  0.5383E-01  0.1198E+02
  25.820  0.4823E-01  0.1198E+02
  25.830  0.4284E-01  0.1198E+02
  25.840  0.3772E-01  0.1198E+02
  25.850  0.3291E-01  0.1198E+02
  25.860  0.2846E-01  0.1198E+02
  25.870  0.2438E-01  0.1198E+02
  25.880  0.2070E-01  0.1198E+02
  25.890  0.1741E-01  0.1198E+02
  25.900  0.1451E-01  0.1198E+02
  25.910  0.1197E-01  0.1198E+02
  25.920  0.9793E-02  0.1198E+02
  25.930  0.7932E-02  0.1198E+02
  25.940  0.6365E-02  0.1198E+02
  25.950  0.5058E-02  0.1198E+02
  25.960  0.3981E-02  0.1198E+02
  25.970  0.3104E-02  0.1198E+02
  25.980  0.2396E-02  0.1198E+02
  25.990  0.1832E-02  0.1198E+02
  26.000  0.1387E-02  0.1198E+02
  26.010  0.1040E-02  0.1198E+02
  26.020  0.7723E-03  0.1198E+02
  26.030  0.5677E-03  0.1198E+02
  26.040  0.4132E-03  0.1198E+02
  26.050  0.2978E-03  0.1198E+02
  26.060  0.2125E-03  0.1198E+02
  26.070  0.1501E-03  0.1198E+02
  26.080  0.1050E-03  0.1198E+02
  26.090  0.7266E-04  0.1198E+02
  26.100  0.4979E-04  0.1198E+02
  26.110  0.3378E-04  0.1198E+02
  26.120  0.2268E-04  0.1198E+02
  26.130  0.1507E-04  0.1198E+02
  26.140  0.9917E-05  0.1198E+02
  26.150  0.6457E-05  0.1198E+02
  26.160  0.4161E-05  0.1198E+02
  26.170  0.2654E-05  0.1198E+02
  26.180  0.1676E-05  0.1198E+02
  26.190  0.1047E-05  0.1198E+02
  26.200  0.6472E-06  0.1198E+02
  26.210  0.3960E-06  0.1198E+02
  26.220  0.2398E-06  0.1198E+02
  26.230  0.1438E-06  0.1198E+02
  26.240  0.8550E-07  0.1198E+02
  26.250  0.5057E-07  0.1198E+02
  26.260  0.3010E-07  0.1198E+02
  26.270  0.1862E-07  0.1198E+02
  26.280  0.1296E-07  0.1198E+02
  26.290  0.1148E-07  0.1199E+02
  26.300  0.1370E-07  0.1199E+02
  26.310  0.2018E-07  0.1199E+02
  26.320  0.3261E-07  0.1199E+02
  26.330  0.5414E-07  0.1199E+02
  26.340  0.9009E-07  0.1199E+02
  26.350  0.1489E-06  0.1199E+02
  26.360  0.2440E-06  0.1199E+02
  26.370  0.3956E-06  0.1199E+02
  26.380  0.6349E-06  0.1199E+02
  26.390  0.1008E-05  0.1199E+02
  26.400  0.1585E-05  0.1199E+02
  26.410  0.2465E-05  0.1199E+02
  26.420  0.3793E-05  0.1199E+02
  26.430  0.5778E-05  0.1199E+02
  26.440  0.8710E-05  0.1199E+02
  26.450  0.1299E-04  0.1199E+02
  26.460  0.1919E-04  0.1199E+02
  26.470  0.2804E-04  0.1199E+02
  26.480  0.4057E-04  0.1199E+02
  26.490  0.5809E-04  0.1199E+02
  26.500  0.8233E-04  0.1199E+02
  26.510  0.1155E-03  0.1199E+02
  26.520  0.1604E-03  0.1199E+02
  26.530  0.2206E-03  0.1199E+02
  26.540  0.3002E-03  0.1199E+02
  26.550  0.4046E-03  0.1199E+02
  26.560  0.5399E-03  0.1199E+02
  26.570  0.7132E-03  0.1199E+02
  26.580  0.9329E-03  0.1199E+02
  26.590  0.1208E-02  0.1199E+02
  26.600  0.1550E-02  0.1199E+02
  26.610  0.1969E-02  0.1199E+02
  26.620  0.2476E-02  0.1199E+02
  26.630  0.3085E-02  0.1199E+02
  26.640  0.3806E-02  0.1199E+02
  26.650  0.4651E-02  0.1199E+02
  26.660  0.5629E-02  0.1199E+02
  26.670  0.6748E-02  0.1199E+02
  26.680  0.8014E-02  0.1199E+02
  26.690  0.9426E-02  0.1199E+02
  26.700  0.1098E-01  0.1199E+02
  26.710  0.1268E-01  0.1199E+02
  26.720  0.1450E-01  0.1199E+02
  26.730  0.1642E-01  0.1199E+02
  26.740  0.1843E-01  0.1199E+02
  26.750  0.2049E-01  0.1199E+02
  26.760  0.2256E-01  0.1199E+02
  26.770  0.2462E-01  0.1199E+02
  26.780  0.2662E-01  0.1199E+02
  26.790  0.2851E-01  0.1199E+02
  26.800  0.3025E-01  0.1199E+02
  26.810  0.3180E-01  0.1199E+02
  26.820  0.3312E-01  0.1199E+02
  26.830  0.3418E-01  0.1199E+02
  26.840  0.3496E-01  0.1199E+02
  26.850  0.3543E-01  0.1199E+02
  26.860  0.3560E-01  0.1199E+02
  26.870  0.3545E-01  0.1199E+02
  26.880  0.3502E-01  0.1199E+02
  26.890  0.3431E-01  0.1199E+02
  26.900  0.3337E-01  0.1199E+02
  26.910  0.3223E-01  0.1199E+02
  26.920  0.3094E-01  0.1199E+02
  26.930  0.2957E-01  0.1199E+02
  26.940  0.2815E-01  0.1199E+02
  26.950  0.2676E-01  0.1199E+02
  26.960  0.2544E-01  0.1199E+02
  26.970  0.2423E-01  0.1199E+02
  26.980  0.2319E-01  0.1199E+02
  26.990  0.2235E-01  0.1199E+02
  27.000  0.2172E-01  0.1199E+02
  27.010  0.2132E-01  0.1199E+02
  27.020  0.2115E-01  0.1199E+02
  27.030  0.2120E-01  0.1199E+02
  27.040  0.2144E-01  0.1199E+02
  27.050  0.2185E-01  0.1199E+02
  27.060  0.2238E-01  0.1200E+02
  27.070  0.2299E-01  0.1200E+02
  27.080  0.2363E-01  0.1200E+02
  27.090  0.2425E-01  0.1200E+02
  27.100  0.2480E-01  0.1200E+02
  27.110  0.2525E-01  0.1200E+02
  27.120  0.2553E-01  0.1200E+02
  27.130  0.2564E-01  0.1200E+02
  27.140  0.2553E-01  0.1200E+02
  27.150  0.2521E-01  0.1200E+02
  27.160  0.2466E-01  0.1200E+02
  27.170  0.2389E-01  0.1200E+02
  27.180  0.2292E-01  0.1200E+02
  27.190  0.2176E-01  0.1200E+02
  27.200  0.2045E-01  0.1200E+02
  27.210  0.1903E-01  0.1200E+02
  27.220  0.1751E-01  0.1200E+02
  27.230  0.1595E-01  0.1200E+02
  27.240  0.1437E-01  0.1200E+02
  27.250  0.1281E-01  0.1200E+02
  27.260  0.1130E-01  0.1200E+02
  27.270  0.9860E-02  0.1200E+02
  27.280  0.8512E-02  0.1200E+02
  27.290  0.7269E-02  0.1200E+02
  27.300  0.6141E-02  0.1200E+02
  27.310  0.5133E-02  0.1200E+02
  27.320  0.4244E-02  0.1200E+02
  27.330  0.3472E-02  0.1200E+02
  27.340  0.2809E-02  0.1200E+02
  27.350  0.2249E-02  0.1200E+02
  27.360  0.1781E-02  0.1200E+02
  27.370  0.1395E-02  0.1200E+02
  27.380  0.1081E-02  0.1200E+02
  27.390  0.8288E-03  0.1200E+02
  27.400  0.6286E-03  0.1200E+02
  27.410  0.4716E-03  0.1200E+02
  27.420  0.3500E-03  0.1200E+02
  27.430  0.2570E-03  0.1200E+02
  27.440  0.1867E-03  0.1200E+02
  27.450  0.1341E-03  0.1200E+02
  27.460  0.9534E-04  0.1200E+02
  27.470  0.6704E-04  0.1200E+02
  27.480  0.4663E-04  0.1200E+02
  27.490  0.3209E-04  0.1200E+02
  27.500  0.2184E-04  0.1200E+02
  27.510  0.1471E-04  0.1200E+02
  27.520  0.9800E-05  0.1200E+02
  27.530  0.6459E-05  0.1200E+02
  27.540  0.4211E-05  0.1200E+02
  27.550  0.2716E-05  0.1200E+02
  27.560  0.1733E-05  0.1200E+02
  27.570  0.1094E-05  0.1200E+02
  27.580  0.6828E-06  0.1200E+02
  27.590  0.4218E-06  0.1200E+02
  27.600  0.2577E-06  0.1200E+02
  27.610  0.1558E-06  0.1200E+02
  27.620  0.9315E-07  0.1200E+02
  27.630  0.5510E-07  0.1200E+02
  27.640  0.3224E-07  0.1200E+02
  27.650  0.1867E-07  0.1200E+02
  27.660  0.1069E-07  0.1200E+02
  27.670  0.6056E-08  0.1200E+02
  27.680  0.3394E-08  0.1200E+02
  27.690  0.1882E-08  0.1200E+02
  27.700  0.1032E-08  0.1200E+02
  27.710  0.5599E-09  0.1200E+02
  27.720  0.3005E-09  0.1200E+02
  27.730  0.1596E-09  0.1200E+02
  27.740  0.8382E-10  0.1200E+02
  27.750  0.4355E-10  0.1200E+02
  27.760  0.2239E-10  0.1200E+02
  27.770  0.1138E-10  0.1200E+02
  27.780  0.5727E-11  0.1200E+02
  27.790  0.2850E-11  0.1200E+02
  27.800  0.1403E-11  0.1200E+02
  27.810  0.6832E-12  0.1200E+02
  27.820  0.3291E-12  0.1200E+02
  27.830  0.1569E-12  0.1200E+02
  27.840  0.7396E-13  0.1200E+02
  27.850  0.3449E-13  0.1200E+02
  27.860  0.1592E-13  0.1200E+02
  27.870  0.7264E-14  0.1200E+02
  27.880  0.3280E-14  0.1200E+02
  27.890  0.1465E-14  0.1200E+02
  27.900  0.6474E-15  0.1200E+02
  27.910  0.2830E-15  0.1200E+02
  27.920  0.1224E-15  0.1200E+02
  27.930  0.5235E-16  0.1200E+02
  27.940  0.2215E-16  0.1200E+02
  27.950  0.9274E-17  0.1200E+02
  27.960  0.3841E-17  0.1200E+02
  27.970  0.1573E-17  0.1200E+02
  27.980  0.6377E-18  0.1200E+02
  27.990  0.2557E-18  0.1200E+02
  28.000  0.1014E-18  0.1200E+02
  28.010  0.3979E-19  0.1200E+02
  28.020  0.1544E-19  0.1200E+02
  28.030  0.5930E-20  0.1200E+02
  28.040  0.2252E-20  0.1200E+02
  28.050  0.8464E-21  0.1200E+02
  28.060  0.3146E-21  0.1200E+02
  28.070  0.1157E-21  0.1200E+02
  28.080  0.4209E-22  0.1200E+02
  28.090  0.1515E-22  0.1200E+02
  28.100  0.5392E-23  0.1200E+02
  28.110  0.1899E-23  0.1200E+02
  28.120  0.6616E-24  0.1200E+02
  28.130  0.2280E-24  0.1200E+02
  28.140  0.7774E-25  0.1200E+02
  28.150  0.2622E-25  0.1200E+02
  28.160  0.8749E-26  0.1200E+02
  28.170  0.2888E-26  0.1200E+02
  28.180  0.9429E-27  0.1200E+02
  28.190  0.3046E-27  0.1200E+02
  28.200  0.9733E-28  0.1200E+02
  28.210  0.3077E-28  0.1200E+02
  28.220  0.9621E-29  0.1200E+02
  28.230  0.2976E-29  0.1200E+02
  28.240  0.9109E-30  0.1200E+02
  28.250  0.2758E-30  0.1200E+02
  28.260  0.8259E-31  0.1200E+02
  28.270  0.2447E-31  0.1200E+02
  28.280  0.7171E-32  0.1200E+02
  28.290  0.2079E-32  0.1200E+02
  28.300  0.5964E-33  0.1200E+02
  28.310  0.1692E-33  0.1200E+02
  28.320  0.4750E-34  0.1200E+02
  28.330  0.1319E-34  0.1200E+02
  28.340  0.3623E-35  0.1200E+02
  28.350  0.9844E-36  0.1200E+02
  28.360  0.2646E-36  0.1200E+02
  28.370  0.7037E-37  0.1200E+02
  28.380  0.1851E-37  0.1200E+02
  28.390  0.4818E-38  0.1200E+02
  28.400  0.1240E-38  0.1200E+02
  28.410  0.3159E-39  0.1200E+02
  28.420  0.7959E-40  0.1200E+02
  28.430  0.1984E-40  0.1200E+02
  28.440  0.4891E-41  0.1200E+02
  28.450  0.1193E-41  0.1200E+02
  28.460  0.2878E-42  0.1200E+02
  28.470  0.6871E-43  0.1200E+02
  28.480  0.1622E-43  0.1200E+02
  28.490  0.3790E-44  0.1200E+02
  28.500  0.8758E-45  0.1200E+02
  28.510  0.2002E-45  0.1200E+02
  28.520  0.4527E-46  0.1200E+02
  28.530  0.1013E-46  0.1200E+02
  28.540  0.2242E-47  0.1200E+02
  28.550  0.4907E-48  0.1200E+02
  28.560  0.1063E-48  0.1200E+02
  28.570  0.2277E-49  0.1200E+02
  28.580  0.4826E-50  0.1200E+02
  28.590  0.1012E-50  0.1200E+02
  28.600  0.2099E-51  0.1200E+02
  28.610  0.4307E-52  0.1200E+02
  28.620  0.8742E-53  0.1200E+02
  28.630  0.1755E-53  0.1200E+02
  28.640  0.3487E-54  0.1200E+02
  28.650  0.6853E-55  0.1200E+02
  28.660  0.1332E-55  0.1200E+02
  28.670  0.2562E-56  0.1200E+02
  28.680  0.4874E-57  0.1200E+02
  28.690  0.9172E-58  0.1200E+02
  28.700  0.1708E-58  0.1200E+02
  28.710  0.3145E-59  0.1200E+02
  28.720  0.5730E-60  0.1200E+02
  28.730  0.1033E-60  0.1200E+02
  28.740  0.1842E-61  0.1200E+02
  28.750  0.3248E-62  0.1200E+02
  28.760  0.5668E-63  0.1200E+02
  28.770  0.9784E-64  0.1200E+02
  28.780  0.1671E-64  0.1200E+02
  28.790  0.2822E-65  0.1200E+02
  28.800  0.4716E-66  0.1200E+02
  28.810  0.7796E-67  0.1200E+02
  28.820  0.1275E-67  0.1200E+02
  28.830  0.2063E-68  0.1200E+02
  28.840  0.3301E-69  0.1200E+02
  28.850  0.5227E-70  0.1200E+02
  28.860  0.8186E-71  0.1200E+02
  28.870  0.1268E-71  0.1200E+02
  28.880  0.1944E-72  0.1200E+02
  28.890  0.2948E-73  0.1200E+02
  28.900  0.4421E-74  0.1200E+02
  28.910  0.6561E-75  0.1200E+02
  28.920  0.9630E-76  0.1200E+02
  28.930  0.1398E-76  0.1200E+02
  28.940  0.2009E-77  0.1200E+02
  28.950  0.2855E-78  0.1200E+02
  28.960  0.4013E-79  0.1200E+02
  28.970  0.5582E-80  0.1200E+02
  28.980  0.7679E-81  0.1200E+02
  28.990  0.1046E-81  0.1200E+02
  29.000  0.1414E-82  0.1200E+02
  29.010  0.1943E-83  0.1200E+02
  29.020  0.3157E-84  0.1200E+02
  29.030  0.1010E-84  0.1200E+02
  29.040  0.7298E-85  0.1200E+02
  29.050  0.6936E-85  0.1200E+02
  29.060  0.6890E-85  0.1200E+02
  29.070  0.6886E-85  0.1200E+02
  29.080  0.6886E-85  0.1200E+02
  29.090  0.6886E-85  0.1200E+02
  29.100  0.6886E-85  0.1200E+02
  29.110  0.6886E-85  0.1200E+02
  29.120  0.6886E-85  0.1200E+02
  29.130  0.6886E-85  0.1200E+02
  29.140  0.6886E-85  0.1200E+02
  29.150  0.6886E-85  0.1200E+02
  29.160  0.6886E-85  0.1200E+02
  29.170  0.6886E-85  0.1200E+02
  29.180  0.6886E-85  0.1200E+02
  29.190  0.6886E-85  0.1200E+02
  29.200  0.6886E-85  0.1200E+02
  29.210  0.6886E-85  0.1200E+02
  29.220  0.6886E-85  0.1200E+02
  29.230  0.6886E-85  0.1200E+02
  29.240  0.6886E-85  0.1200E+02
  29.250  0.6886E-85  0.1200E+02
  29.260  0.6886E-85  0.1200E+02
  29.270  0.6886E-85  0.1200E+02
  29.280  0.6886E-85  0.1200E+02
  29.290  0.6886E-85  0.1200E+02
  29.300  0.6886E-85  0.1200E+02
  29.310  0.6886E-85  0.1200E+02
  29.320  0.6886E-85  0.1200E+02
  29.330  0.6886E-85  0.1200E+02
  29.340  0.6886E-85  0.1200E+02
  29.350  0.6886E-85  0.1200E+02
  29.360  0.6886E-85  0.1200E+02
  29.370  0.6886E-85  0.1200E+02
  29.380  0.6886E-85  0.1200E+02
  29.390  0.6886E-85  0.1200E+02
  29.400  0.6886E-85  0.1200E+02
  29.410  0.6886E-85  0.1200E+02
  29.420  0.6886E-85  0.1200E+02
  29.430  0.6886E-85  0.1200E+02
  29.440  0.6886E-85  0.1200E+02
  29.450  0.6886E-85  0.1200E+02
  29.460  0.6886E-85  0.1200E+02
  29.470  0.6886E-85  0.1200E+02
  29.480  0.6886E-85  0.1200E+02
  29.490  0.6886E-85  0.1200E+02
  29.500  0.6886E-85  0.1200E+02
  29.510  0.6886E-85  0.1200E+02
  29.520  0.6886E-85  0.1200E+02
  29.530  0.6886E-85  0.1200E+02
  29.540  0.6886E-85  0.1200E+02
  29.550  0.6886E-85  0.1200E+02
  29.560  0.6886E-85  0.1200E+02
  29.570  0.6886E-85  0.1200E+02
  29.580  0.6886E-85  0.1200E+02
  29.590  0.6886E-85  0.1200E+02
  29.600  0.6886E-85  0.1200E+02
  29.610  0.6886E-85  0.1200E+02
  29.620  0.6886E-85  0.1200E+02
  29.630  0.6886E-85  0.1200E+02
  29.640  0.6886E-85  0.1200E+02
  29.650  0.6886E-85  0.1200E+02
  29.660  0.6886E-85  0.1200E+02
  29.670  0.6886E-85  0.1200E+02
  29.680  0.6886E-85  0.1200E+02
  29.690  0.6886E-85  0.1200E+02
  29.700  0.6886E-85  0.1200E+02
  29.710  0.6886E-85  0.1200E+02
  29.720  0.6886E-85  0.1200E+02
  29.730  0.6886E-85  0.1200E+02
  29.740  0.6886E-85  0.1200E+02
  29.750  0.6886E-85  0.1200E+02
  29.760  0.6886E-85  0.1200E+02
  29.770  0.6886E-85  0.1200E+02
  29.780  0.6886E-85  0.1200E+02
  29.790  0.6886E-85  0.1200E+02
  29.800  0.6886E-85  0.1200E+02
  29.810  0.6886E-85  0.1200E+02
  29.820  0.6886E-85  0.1200E+02
  29.830  0.6886E-85  0.1200E+02
  29.840  0.6886E-85  0.1200E+02
  29.850  0.6886E-85  0.1200E+02
  29.860  0.6886E-85  0.1200E+02
  29.870  0.6886E-85  0.1200E+02
  29.880  0.6886E-85  0.1200E+02
  29.890  0.6886E-85  0.1200E+02
  29.900  0.6886E-85  0.1200E+02
  29.910  0.6886E-85  0.1200E+02
  29.920  0.6886E-85  0.1200E+02
  29.930  0.6886E-85  0.1200E+02
  29.940  0.6886E-85  0.1200E+02
  29.950  0.6886E-85  0.1200E+02
  29.960  0.6886E-85  0.1200E+02
  29.970  0.6886E-85  0.1200E+02
  29.980  0.6886E-85  0.1200E+02
  29.990  0.6886E-85  0.1200E+02
  30.000  0.6886E-85  0.1200E+02
  30.010  0.6886E-85  0.1200E+02
  30.020  0.6886E-85  0.1200E+02
  30.030  0.6886E-85  0.1200E+02
  30.040  0.6886E-85  0.1200E+02
  30.050  0.6886E-85  0.1200E+02
  30.060  0.6886E-85  0.1200E+02
  30.070  0.6886E-85  0.1200E+02
  30.080  0.6886E-85  0.1200E+02
  30.090  0.6886E-85  0.1200E+02
  30.100  0.6886E-85  0.1200E+02
  30.110  0.6886E-85  0.1200E+02
  30.120  0.6886E-85  0.1200E+02
  30.130  0.6886E-85  0.1200E+02
  30.140  0.6886E-85  0.1200E+02
  30.150  0.6886E-85  0.1200E+02
  30.160  0.6886E-85  0.1200E+02
  30.170  0.6886E-85  0.1200E+02
  30.180  0.6886E-85  0.1200E+02
  30.190  0.6886E-85  0.1200E+02
  30.200  0.6886E-85  0.1200E+02
  30.210  0.6886E-85  0.1200E+02
  30.220  0.6886E-85  0.1200E+02
  30.230  0.6886E-85  0.1200E+02
  30.240  0.6886E-85  0.1200E+02
  30.250  0.6886E-85  0.1200E+02
  30.260  0.6886E-85  0.1200E+02
  30.270  0.6886E-85  0.1200E+02
  30.280  0.6886E-85  0.1200E+02
  30.290  0.6886E-85  0.1200E+02
  30.300  0.6886E-85  0.1200E+02
  30.310  0.6886E-85  0.1200E+02
  30.320  0.6886E-85  0.1200E+02
  30.330  0.6886E-85  0.1200E+02
  30.340  0.6886E-85  0.1200E+02
  30.350  0.6886E-85  0.1200E+02
  30.360  0.6886E-85  0.1200E+02
  30.370  0.6886E-85  0.1200E+02
  30.380  0.6886E-85  0.1200E+02
  30.390  0.6886E-85  0.1200E+02
  30.400  0.6886E-85  0.1200E+02
  30.410  0.6886E-85  0.1200E+02
  30.420  0.6886E-85  0.1200E+02
  30.430  0.6886E-85  0.1200E+02
  30.440  0.6886E-85  0.1200E+02
  30.450  0.6886E-85  0.1200E+02
  30.460  0.6886E-85  0.1200E+02
  30.470  0.6886E-85  0.1200E+02
  30.480  0.6886E-85  0.1200E+02
  30.490  0.6886E-85  0.1200E+02
  30.500  0.6886E-85  0.1200E+02
  30.510  0.6886E-85  0.1200E+02
  30.520  0.6886E-85  0.1200E+02
  30.530  0.6886E-85  0.1200E+02
  30.540  0.6886E-85  0.1200E+02
  30.550  0.6886E-85  0.1200E+02
  30.560  0.6886E-85  0.1200E+02
  30.570  0.6886E-85  0.1200E+02
  30.580  0.6886E-85  0.1200E+02
  30.590  0.6886E-85  0.1200E+02
  30.600  0.6886E-85  0.1200E+02
  30.610  0.6886E-85  0.1200E+02
  30.620  0.6886E-85  0.1200E+02
  30.630  0.6886E-85  0.1200E+02
  30.640  0.6886E-85  0.1200E+02
  30.650  0.6886E-85  0.1200E+02
  30.660  0.6886E-85  0.1200E+02
  30.670  0.6886E-85  0.1200E+02
  30.680  0.6886E-85  0.1200E+02
  30.690  0.6886E-85  0.1200E+02
  30.700  0.6886E-85  0.1200E+02
  30.710  0.6886E-85  0.1200E+02
  30.720  0.6886E-85  0.1200E+02
  30.730  0.6886E-85  0.1200E+02
  30.740  0.6886E-85  0.1200E+02
  30.750  0.6886E-85  0.1200E+02
  30.760  0.6886E-85  0.1200E+02
  30.770  0.6886E-85  0.1200E+02
  30.780  0.6886E-85  0.1200E+02
  30.790  0.6886E-85  0.1200E+02
  30.800  0.6886E-85  0.1200E+02
  30.810  0.6886E-85  0.1200E+02
  30.820  0.6886E-85  0.1200E+02
  30.830  0.6886E-85  0.1200E+02
  30.840  0.6886E-85  0.1200E+02
  30.850  0.6886E-85  0.1200E+02
  30.860  0.6886E-85  0.1200E+02
  30.870  0.6886E-85  0.1200E+02
  30.880  0.6886E-85  0.1200E+02
  30.890  0.6886E-85  0.1200E+02
  30.900  0.6886E-85  0.1200E+02
  30.910  0.6886E-85  0.1200E+02
  30.920  0.6886E-85  0.1200E+02
  30.930  0.6886E-85  0.1200E+02
  30.940  0.6886E-85  0.1200E+02
  30.950  0.6886E-85  0.1200E+02
  30.960  0.6886E-85  0.1200E+02
  30.970  0.6886E-85  0.1200E+02
  30.980  0.6886E-85  0.1200E+02
  30.990  0.6886E-85  0.1200E+02
  31.000  0.6886E-85  0.1200E+02
  31.010  0.6886E-85  0.1200E+02
  31.020  0.6886E-85  0.1200E+02
  31.030  0.6886E-85  0.1200E+02
  31.040  0.6886E-85  0.1200E+02
  31.050  0.6886E-85  0.1200E+02
  31.060  0.6886E-85  0.1200E+02
  31.070  0.6886E-85  0.1200E+02
  31.080  0.6886E-85  0.1200E+02
  31.090  0.6886E-85  0.1200E+02
  31.100  0.6886E-85  0.1200E+02
  31.110  0.6886E-85  0.1200E+02
  31.120  0.6886E-85  0.1200E+02
  31.130  0.6886E-85  0.1200E+02
  31.140  0.6886E-85  0.1200E+02
  31.150  0.6886E-85  0.1200E+02
  31.160  0.6886E-85  0.1200E+02
  31.170  0.6886E-85  0.1200E+02
  31.180  0.6886E-85  0.1200E+02
  31.190  0.6886E-85  0.1200E+02
  31.200  0.6886E-85  0.1200E+02
  31.210  0.6886E-85  0.1200E+02
  31.220  0.6886E-85  0.1200E+02
  31.230  0.6886E-85  0.1200E+02
  31.240  0.6886E-85  0.1200E+02
  31.250  0.6886E-85  0.1200E+02
  31.260  0.6886E-85  0.1200E+02
  31.270  0.6886E-85  0.1200E+02
  31.280  0.6886E-85  0.1200E+02
  31.290  0.6886E-85  0.1200E+02
  31.300  0.6886E-85  0.1200E+02
  31.310  0.6886E-85  0.1200E+02
  31.320  0.6886E-85  0.1200E+02
  31.330  0.6886E-85  0.1200E+02
  31.340  0.6886E-85  0.1200E+02
  31.350  0.6886E-85  0.1200E+02
  31.360  0.6886E-85  0.1200E+02
  31.370  0.6886E-85  0.1200E+02
  31.380  0.6886E-85  0.1200E+02
  31.390  0.6886E-85  0.1200E+02
  31.400  0.6886E-85  0.1200E+02
  31.410  0.6886E-85  0.1200E+02
  31.420  0.6886E-85  0.1200E+02
  31.430  0.6886E-85  0.1200E+02
  31.440  0.6886E-85  0.1200E+02
  31.450  0.6886E-85  0.1200E+02
  31.460  0.6886E-85  0.1200E+02
  31.470  0.6886E-85  0.1200E+02
  31.480  0.6886E-85  0.1200E+02
  31.490  0.6886E-85  0.1200E+02
  31.500  0.6886E-85  0.1200E+02
  31.510  0.6886E-85  0.1200E+02
  31.520  0.6886E-85  0.1200E+02
  31.530  0.6886E-85  0.1200E+02
  31.540  0.6886E-85  0.1200E+02
  31.550  0.6886E-85  0.1200E+02
  31.560  0.6886E-85  0.1200E+02
  31.570  0.6886E-85  0.1200E+02
  31.580  0.6886E-85  0.1200E+02
  31.590  0.6886E-85  0.1200E+02
  31.600  0.6886E-85  0.1200E+02
  31.610  0.6886E-85  0.1200E+02
  31.620  0.6886E-85  0.1200E+02
  31.630  0.6886E-85  0.1200E+02
  31.640  0.6886E-85  0.1200E+02
  31.650  0.6886E-85  0.1200E+02
  31.660  0.6886E-85  0.1200E+02
  31.670  0.6886E-85  0.1200E+02
  31.680  0.6886E-85  0.1200E+02
  31.690  0.6886E-85  0.1200E+02
  31.700  0.6886E-85  0.1200E+02
  31.710  0.6886E-85  0.1200E+02
  31.720  0.6886E-85  0.1200E+02
  31.730  0.6886E-85  0.1200E+02
  31.740  0.6886E-85  0.1200E+02
  31.750  0.6886E-85  0.1200E+02
  31.760  0.6886E-85  0.1200E+02
  31.770  0.6886E-85  0.1200E+02
  31.780  0.6886E-85  0.1200E+02
  31.790  0.6886E-85  0.1200E+02
  31.800  0.6886E-85  0.1200E+02
  31.810  0.6886E-85  0.1200E+02
  31.820  0.6886E-85  0.1200E+02
  31.830  0.6886E-85  0.1200E+02
  31.840  0.6886E-85  0.1200E+02
  31.850  0.6886E-85  0.1200E+02
  31.860  0.6886E-85  0.1200E+02
  31.870  0.6886E-85  0.1200E+02
  31.880  0.6886E-85  0.1200E+02
  31.890  0.6886E-85  0.1200E+02
  31.900  0.6886E-85  0.1200E+02
  31.910  0.6886E-85  0.1200E+02
  31.920  0.6886E-85  0.1200E+02
  31.930  0.6886E-85  0.1200E+02
  31.940  0.6886E-85  0.1200E+02
  31.950  0.6886E-85  0.1200E+02
  31.960  0.6886E-85  0.1200E+02
  31.970  0.6886E-85  0.1200E+02
  31.980  0.6886E-85  0.1200E+02
  31.990  0.6886E-85  0.1200E+02
  32.000  0.6886E-85  0.1200E+02
  32.010  0.6886E-85  0.1200E+02
  32.020  0.6886E-85  0.1200E+02
  32.030  0.6886E-85  0.1200E+02
  32.040  0.6886E-85  0.1200E+02
  32.050  0.6886E-85  0.1200E+02
  32.060  0.6886E-85  0.1200E+02
  32.070  0.6886E-85  0.1200E+02
  32.080  0.6886E-85  0.1200E+02
  32.090  0.6886E-85  0.1200E+02
  32.100  0.6886E-85  0.1200E+02
  32.110  0.6886E-85  0.1200E+02
  32.120  0.6886E-85  0.1200E+02
  32.130  0.6886E-85  0.1200E+02
  32.140  0.6886E-85  0.1200E+02
  32.150  0.6886E-85  0.1200E+02
  32.160  0.6886E-85  0.1200E+02
  32.170  0.6886E-85  0.1200E+02
  32.180  0.6886E-85  0.1200E+02
  32.190  0.6886E-85  0.1200E+02
  32.200  0.6886E-85  0.1200E+02
  32.210  0.6886E-85  0.1200E+02
  32.220  0.6886E-85  0.1200E+02
  32.230  0.6886E-85  0.1200E+02
  32.240  0.6886E-85  0.1200E+02
  32.250  0.6886E-85  0.1200E+02
  32.260  0.6886E-85  0.1200E+02
  32.270  0.6886E-85  0.1200E+02
  32.280  0.6886E-85  0.1200E+02
  32.290  0.6886E-85  0.1200E+02
  32.300  0.6886E-85  0.1200E+02
  32.310  0.6886E-85  0.1200E+02
  32.320  0.6886E-85  0.1200E+02
  32.330  0.6886E-85  0.1200E+02
  32.340  0.6886E-85  0.1200E+02
  32.350  0.6886E-85  0.1200E+02
  32.360  0.6886E-85  0.1200E+02
  32.370  0.6886E-85  0.1200E+02
  32.380  0.6886E-85  0.1200E+02
  32.390  0.6886E-85  0.1200E+02
  32.400  0.6886E-85  0.1200E+02
  32.410  0.6886E-85  0.1200E+02
  32.420  0.6886E-85  0.1200E+02
  32.430  0.6886E-85  0.1200E+02
  32.440  0.6886E-85  0.1200E+02
  32.450  0.6886E-85  0.1200E+02
  32.460  0.6886E-85  0.1200E+02
  32.470  0.6886E-85  0.1200E+02
  32.480  0.6886E-85  0.1200E+02
  32.490  0.6886E-85  0.1200E+02
  32.500  0.6886E-85  0.1200E+02
  32.510  0.6886E-85  0.1200E+02
  32.520  0.6886E-85  0.1200E+02
  32.530  0.6886E-85  0.1200E+02
  32.540  0.6886E-85  0.1200E+02
  32.550  0.6886E-85  0.1200E+02
  32.560  0.6886E-85  0.1200E+02
  32.570  0.6886E-85  0.1200E+02
  32.580  0.6886E-85  0.1200E+02
  32.590  0.6886E-85  0.1200E+02
  32.600  0.6886E-85  0.1200E+02
  32.610  0.6886E-85  0.1200E+02
  32.620  0.6886E-85  0.1200E+02
  32.630  0.6886E-85  0.1200E+02
  32.640  0.6886E-85  0.1200E+02
  32.650  0.6886E-85  0.1200E+02
  32.660  0.6886E-85  0.1200E+02
  32.670  0.6886E-85  0.1200E+02
  32.680  0.6886E-85  0.1200E+02
  32.690  0.6886E-85  0.1200E+02
  32.700  0.6886E-85  0.1200E+02
  32.710  0.6886E-85  0.1200E+02
  32.720  0.6886E-85  0.1200E+02
  32.730  0.6886E-85  0.1200E+02
  32.740  0.6886E-85  0.1200E+02
  32.750  0.6886E-85  0.1200E+02
  32.760  0.6886E-85  0.1200E+02
  32.770  0.6886E-85  0.1200E+02
  32.780  0.6886E-85  0.1200E+02
  32.790  0.6886E-85  0.1200E+02
  32.800  0.6886E-85  0.1200E+02
  32.810  0.6886E-85  0.1200E+02
  32.820  0.6886E-85  0.1200E+02
  32.830  0.6886E-85  0.1200E+02
  32.840  0.6886E-85  0.1200E+02
  32.850  0.6886E-85  0.1200E+02
  32.860  0.6886E-85  0.1200E+02
  32.870  0.6886E-85  0.1200E+02
  32.880  0.6886E-85  0.1200E+02
  32.890  0.6886E-85  0.1200E+02
  32.900  0.6886E-85  0.1200E+02
  32.910  0.6886E-85  0.1200E+02
  32.920  0.6886E-85  0.1200E+02
  32.930  0.6886E-85  0.1200E+02
  32.940  0.6886E-85  0.1200E+02
  32.950  0.6886E-85  0.1200E+02
  32.960  0.6886E-85  0.1200E+02
  32.970  0.6886E-85  0.1200E+02
  32.980  0.6886E-85  0.1200E+02
  32.990  0.6886E-85  0.1200E+02
  33.000  0.6886E-85  0.1200E+02
  33.010  0.6886E-85  0.1200E+02
  33.020  0.6886E-85  0.1200E+02
  33.030  0.6886E-85  0.1200E+02
  33.040  0.6886E-85  0.1200E+02
  33.050  0.6886E-85  0.1200E+02
  33.060  0.6886E-85  0.1200E+02
  33.070  0.6886E-85  0.1200E+02
  33.080  0.6886E-85  0.1200E+02
  33.090  0.6886E-85  0.1200E+02
  33.100  0.6886E-85  0.1200E+02
  33.110  0.6886E-85  0.1200E+02
  33.120  0.6886E-85  0.1200E+02
  33.130  0.6886E-85  0.1200E+02
  33.140  0.6886E-85  0.1200E+02
  33.150  0.6886E-85  0.1200E+02
  33.160  0.6886E-85  0.1200E+02
  33.170  0.6886E-85  0.1200E+02
  33.180  0.6886E-85  0.1200E+02
  33.190  0.6886E-85  0.1200E+02
  33.200  0.6886E-85  0.1200E+02
  33.210  0.6886E-85  0.1200E+02
  33.220  0.6886E-85  0.1200E+02
  33.230  0.6886E-85  0.1200E+02
  33.240  0.6886E-85  0.1200E+02
  33.250  0.6886E-85  0.1200E+02
  33.260  0.6886E-85  0.1200E+02
  33.270  0.6886E-85  0.1200E+02
  33.280  0.6886E-85  0.1200E+02
  33.290  0.6886E-85  0.1200E+02
  33.300  0.6886E-85  0.1200E+02
  33.310  0.6886E-85  0.1200E+02
  33.320  0.6886E-85  0.1200E+02
  33.330  0.6886E-85  0.1200E+02
  33.340  0.6886E-85  0.1200E+02
  33.350  0.6886E-85  0.1200E+02
  33.360  0.6886E-85  0.1200E+02
  33.370  0.6886E-85  0.1200E+02
  33.380  0.6886E-85  0.1200E+02
  33.390  0.6886E-85  0.1200E+02
  33.400  0.6886E-85  0.1200E+02
  33.410  0.6886E-85  0.1200E+02
  33.420  0.6886E-85  0.1200E+02
  33.430  0.6886E-85  0.1200E+02
  33.440  0.6886E-85  0.1200E+02
  33.450  0.6886E-85  0.1200E+02
  33.460  0.6886E-85  0.1200E+02
  33.470  0.6886E-85  0.1200E+02
  33.480  0.6886E-85  0.1200E+02
  33.490  0.6886E-85  0.1200E+02
  33.500  0.6886E-85  0.1200E+02
  33.510  0.6886E-85  0.1200E+02
  33.520  0.6886E-85  0.1200E+02
  33.530  0.6886E-85  0.1200E+02
  33.540  0.6886E-85  0.1200E+02
  33.550  0.6886E-85  0.1200E+02
  33.560  0.6886E-85  0.1200E+02
  33.570  0.6886E-85  0.1200E+02
  33.580  0.6886E-85  0.1200E+02
  33.590  0.6886E-85  0.1200E+02
  33.600  0.6886E-85  0.1200E+02
  33.610  0.6886E-85  0.1200E+02
  33.620  0.6886E-85  0.1200E+02
  33.630  0.6886E-85  0.1200E+02
  33.640  0.6886E-85  0.1200E+02
  33.650  0.6886E-85  0.1200E+02
  33.660  0.6886E-85  0.1200E+02
  33.670  0.6886E-85  0.1200E+02
  33.680  0.6886E-85  0.1200E+02
  33.690  0.6886E-85  0.1200E+02
  33.700  0.6886E-85  0.1200E+02
  33.710  0.6886E-85  0.1200E+02
  33.720  0.6886E-85  0.1200E+02
  33.730  0.6886E-85  0.1200E+02
  33.740  0.6886E-85  0.1200E+02
  33.750  0.6886E-85  0.1200E+02
  33.760  0.6886E-85  0.1200E+02
  33.770  0.6886E-85  0.1200E+02
  33.780  0.6886E-85  0.1200E+02
  33.790  0.6886E-85  0.1200E+02
  33.800  0.6886E-85  0.1200E+02
  33.810  0.6886E-85  0.1200E+02
  33.820  0.6886E-85  0.1200E+02
  33.830  0.6886E-85  0.1200E+02
  33.840  0.6886E-85  0.1200E+02
  33.850  0.6886E-85  0.1200E+02
  33.860  0.6886E-85  0.1200E+02
  33.870  0.6886E-85  0.1200E+02
  33.880  0.6886E-85  0.1200E+02
  33.890  0.6886E-85  0.1200E+02
  33.900  0.6886E-85  0.1200E+02
  33.910  0.6886E-85  0.1200E+02
  33.920  0.6886E-85  0.1200E+02
  33.930  0.6886E-85  0.1200E+02
  33.940  0.6886E-85  0.1200E+02
  33.950  0.6886E-85  0.1200E+02
  33.960  0.6886E-85  0.1200E+02
  33.970  0.6886E-85  0.1200E+02
  33.980  0.6886E-85  0.1200E+02
  33.990  0.6886E-85  0.1200E+02
  34.000  0.6886E-85  0.1200E+02
  34.010  0.6886E-85  0.1200E+02
  34.020  0.6886E-85  0.1200E+02
  34.030  0.6886E-85  0.1200E+02
  34.040  0.6886E-85  0.1200E+02
  34.050  0.6886E-85  0.1200E+02
  34.060  0.6886E-85  0.1200E+02
  34.070  0.6886E-85  0.1200E+02
  34.080  0.6886E-85  0.1200E+02
  34.090  0.6886E-85  0.1200E+02
  34.100  0.6886E-85  0.1200E+02
  34.110  0.6886E-85  0.1200E+02
  34.120  0.6886E-85  0.1200E+02
  34.130  0.6886E-85  0.1200E+02
  34.140  0.6886E-85  0.1200E+02
  34.150  0.6886E-85  0.1200E+02
  34.160  0.6886E-85  0.1200E+02
  34.170  0.6886E-85  0.1200E+02
  34.180  0.6886E-85  0.1200E+02
  34.190  0.6886E-85  0.1200E+02
  34.200  0.6886E-85  0.1200E+02
  34.210  0.6886E-85  0.1200E+02
  34.220  0.6886E-85  0.1200E+02
  34.230  0.6886E-85  0.1200E+02
  34.240  0.6886E-85  0.1200E+02
  34.250  0.6886E-85  0.1200E+02
  34.260  0.6886E-85  0.1200E+02
  34.270  0.6886E-85  0.1200E+02
  34.280  0.6886E-85  0.1200E+02
  34.290  0.6886E-85  0.1200E+02
  34.300  0.6886E-85  0.1200E+02
  34.310  0.6886E-85  0.1200E+02
  34.320  0.6886E-85  0.1200E+02
  34.330  0.6886E-85  0.1200E+02
  34.340  0.6886E-85  0.1200E+02
  34.350  0.6886E-85  0.1200E+02
  34.360  0.6886E-85  0.1200E+02
  34.370  0.6886E-85  0.1200E+02
  34.380  0.6886E-85  0.1200E+02
  34.390  0.6886E-85  0.1200E+02
  34.400  0.6886E-85  0.1200E+02
  34.410  0.6886E-85  0.1200E+02
  34.420  0.6886E-85  0.1200E+02
  34.430  0.6886E-85  0.1200E+02
  34.440  0.6886E-85  0.1200E+02
  34.450  0.6886E-85  0.1200E+02
  34.460  0.6886E-85  0.1200E+02
  34.470  0.6886E-85  0.1200E+02
  34.480  0.6886E-85  0.1200E+02
  34.490  0.6886E-85  0.1200E+02
  34.500  0.6886E-85  0.1200E+02
  34.510  0.6886E-85  0.1200E+02
  34.520  0.6886E-85  0.1200E+02
  34.530  0.6886E-85  0.1200E+02
  34.540  0.6886E-85  0.1200E+02
  34.550  0.6886E-85  0.1200E+02
  34.560  0.6886E-85  0.1200E+02
  34.570  0.6886E-85  0.1200E+02
  34.580  0.6886E-85  0.1200E+02
  34.590  0.6886E-85  0.1200E+02
  34.600  0.6886E-85  0.1200E+02
  34.610  0.6886E-85  0.1200E+02
  34.620  0.6886E-85  0.1200E+02
  34.630  0.6886E-85  0.1200E+02
  34.640  0.6886E-85  0.1200E+02
  34.650  0.6886E-85  0.1200E+02
  34.660  0.6886E-85  0.1200E+02
  34.670  0.6886E-85  0.1200E+02
  34.680  0.6886E-85  0.1200E+02
  34.690  0.6886E-85  0.1200E+02
  34.700  0.6886E-85  0.1200E+02
  34.710  0.6886E-85  0.1200E+02
  34.720  0.6886E-85  0.1200E+02
  34.730  0.6886E-85  0.1200E+02
  34.740  0.6886E-85  0.1200E+02
  34.750  0.6886E-85  0.1200E+02
  34.760  0.6886E-85  0.1200E+02
  34.770  0.6886E-85  0.1200E+02
  34.780  0.6886E-85  0.1200E+02
  34.790  0.6886E-85  0.1200E+02
  34.800  0.6886E-85  0.1200E+02
  34.810  0.6886E-85  0.1200E+02
  34.820  0.6886E-85  0.1200E+02
  34.830  0.6886E-85  0.1200E+02
  34.840  0.6886E-85  0.1200E+02
  34.850  0.6886E-85  0.1200E+02
  34.860  0.6886E-85  0.1200E+02
  34.870  0.6886E-85  0.1200E+02
  34.880  0.6886E-85  0.1200E+02
  34.890  0.6886E-85  0.1200E+02
  34.900  0.6886E-85  0.1200E+02
  34.910  0.6886E-85  0.1200E+02
  34.920  0.6886E-85  0.1200E+02
  34.930  0.6886E-85  0.1200E+02
  34.940  0.6886E-85  0.1200E+02
  34.950  0.6886E-85  0.1200E+02
  34.960  0.6886E-85  0.1200E+02
  34.970  0.6886E-85  0.1200E+02
  34.980  0.6886E-85  0.1200E+02
  34.990  0.6886E-85  0.1200E+02
  35.000  0.6886E-85  0.1200E+02
